%OpenBCI Raw EXG Data
%Number of channels = 4
%Sample Rate = 200 Hz
%Board = OpenBCI_GUI$BoardGanglionBLE
Sample Index, EXG Channel 0, EXG Channel 1, EXG Channel 2, EXG Channel 3, Accel Channel 0, Accel Channel 1, Accel Channel 2, Other, Other, Other, Other, Other, Timestamp, Other, Timestamp (Formatted)
16.0, 90.07549043279141, 55.42905724328011, 143.75053459685296, 166.08895703218877, 0.0, 0.0, 0.0, 0.0, 0.0, 0.0, 0.0, 0.0, 1.709067779561201E9, 0.0, 2024-02-27 13:02:59.561
16.0, -54.969049548730254, -85.63622918538749, -52.571773677133024, -59.786040691658854, 0.0, 0.0, 0.0, 0.0, 0.0, 0.0, 0.0, 0.0, 1.709067779561201E9, 0.0, 2024-02-27 13:02:59.561
17.0, 117.07008831296116, -327.34783327160403, 150.9274026118219, 171.18270077183843, 0.0, 0.0, 0.0, 0.0, 0.0, 0.0, 0.0, 0.0, 1.709067779565247E9, 0.0, 2024-02-27 13:02:59.565
17.0, 119.85631377995014, -368.5278716837056, 166.09269693214446, 192.39915322046727, 0.0, 0.0, 0.0, 0.0, 0.0, 0.0, 0.0, 0.0, 1.709067779565247E9, 0.0, 2024-02-27 13:02:59.565
18.0, -62.37031156104058, -606.5014457642101, -30.13611384294927, -22.028010739013553, 0.0, 0.0, 0.0, 0.0, 0.0, 0.0, 0.0, 0.0, 1.709067779569169E9, 0.0, 2024-02-27 13:02:59.569
18.0, 44.011142678558826, -422.5507265436463, 54.61375905293971, 73.7770064258948, 0.0, 0.0, 0.0, 0.0, 0.0, 0.0, 0.0, 0.0, 1.709067779569169E9, 0.0, 2024-02-27 13:02:59.569
19.0, 125.12209291756153, -337.38572475267574, 149.2145284321159, 182.70907243527472, 0.0, 0.0, 0.0, 0.0, 0.0, 0.0, 0.0, 0.0, 1.709067779572257E9, 0.0, 2024-02-27 13:02:59.572
19.0, 2.382316271774471, -564.760422358755, 51.5807001888752, 79.5588917573914, 0.0, 0.0, 0.0, 0.0, 0.0, 0.0, 0.0, 0.0, 1.709067779572257E9, 0.0, 2024-02-27 13:02:59.572
20.0, -43.289341987110674, -546.356374676805, -48.072674030438066, -38.96227773837745, 0.0, 0.0, 1.0240000486373901, 0.0, 0.0, 0.0, 0.0, 0.0, 1.709067779887719E9, 0.0, 2024-02-27 13:02:59.887
20.0, 123.10628684144467, -323.74256971431896, 151.23407440818846, 187.80281617492437, 0.0, 0.0, 1.0240000486373901, 0.0, 0.0, 0.0, 0.0, 0.0, 1.709067779887719E9, 0.0, 2024-02-27 13:02:59.887
21.0, 66.91802990715951, -473.03189614554867, 115.61900713015348, 153.01426678709686, 0.0, 0.01600000075995922, 1.0240000486373901, 0.0, 0.0, 0.0, 0.0, 0.0, 1.709067779890681E9, 0.0, 2024-02-27 13:02:59.890
21.0, -66.85071170795709, -585.5542661123909, -51.82379368599504, -43.13974598888308, 0.0, 0.01600000075995922, 1.0240000486373901, 0.0, 0.0, 0.0, 0.0, 0.0, 1.709067779890681E9, 0.0, 2024-02-27 13:02:59.890
22.0, 119.25044998712838, -807.4855393329635, 157.97337412834167, 192.88534021470696, -0.0800000037997961, 0.01600000075995922, 1.0240000486373901, 0.0, 0.0, 0.0, 0.0, 0.0, 1.709067779893655E9, 0.0, 2024-02-27 13:02:59.893
22.0, 122.75099634565413, -836.5408220887184, 174.36161573417485, 217.83795271907002, -0.0800000037997961, 0.01600000075995922, 1.0240000486373901, 0.0, 0.0, 0.0, 0.0, 0.0, 1.709067779893655E9, 0.0, 2024-02-27 13:02:59.893
31.0, 45.47718346118927, -996.6309795919806, 126.06454770639539, 170.84236987587065, -0.0800000037997961, 0.01600000075995922, 1.0240000486373901, 0.0, 0.0, 0.0, 0.0, 0.0, 1.709067779902029E9, 0.0, 2024-02-27 13:02:59.902
31.0, -84.7423930959776, -1121.753072509542, -54.0639937594533, -43.285602087154984, -0.0800000037997961, 0.01600000075995922, 1.0240000486373901, 0.0, 0.0, 0.0, 0.0, 0.0, 1.709067779902029E9, 0.0, 2024-02-27 13:02:59.902
32.0, 96.53803755622357, -1347.6187204835005, 151.34627140685916, 194.66179269365966, -0.0800000037997961, 0.01600000075995922, 1.0240000486373901, 0.0, 0.0, 0.0, 0.0, 0.0, 1.709067779946981E9, 0.0, 2024-02-27 13:02:59.946
32.0, 103.96921876817942, -1387.1457231151871, 171.25749877095222, 210.51896850578487, -0.0800000037997961, 0.01600000075995922, 1.0240000486373901, 0.0, 0.0, 0.0, 0.0, 0.0, 1.709067779946981E9, 0.0, 2024-02-27 13:02:59.946
33.0, -68.50748738832772, -1617.9312094808556, -10.43058097641915, 5.273258937522769, -0.0800000037997961, 0.01600000075995922, 1.0240000486373901, 0.0, 0.0, 0.0, 0.0, 0.0, 1.70906777994995E9, 0.0, 2024-02-27 13:02:59.949
33.0, 44.60952667146921, -1409.543983949814, 81.57843773346394, 116.22113102301955, -0.0800000037997961, 0.01600000075995922, 1.0240000486373901, 0.0, 0.0, 0.0, 0.0, 0.0, 1.70906777994995E9, 0.0, 2024-02-27 13:02:59.949
34.0, 133.30499402061105, -1314.700121073518, 186.80052298679948, 224.24440134316683, -0.0800000037997961, 0.01600000075995922, 1.0240000486373901, 0.0, 0.0, 0.0, 0.0, 0.0, 1.70906777999072E9, 0.0, 2024-02-27 13:02:59.990
34.0, 4.342023848555982, -1548.4775274037383, 85.06028459221125, 119.25792978703976, -0.0800000037997961, 0.01600000075995922, 1.0240000486373901, 0.0, 0.0, 0.0, 0.0, 0.0, 1.70906777999072E9, 0.0, 2024-02-27 13:02:59.990
64.0, 82.44983442313969, -1448.9288703831844, 190.03553644847125, 239.4882335625589, -0.0800000037997961, 0.01600000075995922, 1.0240000486373901, 0.0, 0.0, 0.0, 0.0, 0.0, 1.709067780098119E9, 0.0, 2024-02-27 13:03:00.098
64.0, -30.20343204215169, -1671.6773117440753, 96.94942655134946, 134.57656000554562, -0.0800000037997961, 0.01600000075995922, 1.0240000486373901, 0.0, 0.0, 0.0, 0.0, 0.0, 1.709067780098119E9, 0.0, 2024-02-27 13:03:00.098
65.0, -75.65443620365113, -1645.9767192485742, 1.0733512872830033, 19.499838368967175, -0.0800000037997961, 0.01600000075995922, 1.0240000486373901, 0.0, 0.0, 0.0, 0.0, 0.0, 1.709067780100869E9, 0.0, 2024-02-27 13:03:00.100
65.0, 94.87004217598587, -1419.3948804331012, 201.67036521062255, 247.02039207331836, -0.0800000037997961, 0.01600000075995922, 1.0240000486373901, 0.0, 0.0, 0.0, 0.0, 0.0, 1.709067780100869E9, 0.0, 2024-02-27 13:03:00.100
66.0, 30.809295834973454, -1577.5178505596705, 162.47247377503663, 202.94193119555712, -0.0800000037997961, 0.01600000075995922, 1.0240000486373901, 0.0, 0.0, 0.0, 0.0, 0.0, 1.709067780114489E9, 0.0, 2024-02-27 13:03:00.114
66.0, -115.41705253254622, -1719.764945374336, -30.52132353838533, -25.113428202457726, -0.0800000037997961, 0.01600000075995922, 1.0240000486373901, 0.0, 0.0, 0.0, 0.0, 0.0, 1.709067780114489E9, 0.0, 2024-02-27 13:03:00.114
67.0, 61.97014226578176, -1953.0393351605162, 173.90908783953637, 215.48555564694107, -0.0800000037997961, 0.01600000075995922, 1.0240000486373901, 0.0, 0.0, 0.0, 0.0, 0.0, 1.709067780117619E9, 0.0, 2024-02-27 13:03:00.117
67.0, 75.61329730413854, -1991.4219284057617, 192.08126172423363, 243.23935321811587, -0.0800000037997961, 0.01600000075995922, 1.0240000486373901, 0.0, 0.0, 0.0, 0.0, 0.0, 1.709067780117619E9, 0.0, 2024-02-27 13:03:00.117
70.0, 28.56161596160382, -1979.9142562421039, 92.89911489933729, 130.63844535220414, -0.0800000037997961, 0.01600000075995922, 1.0240000486373901, 0.0, 0.0, 0.0, 0.0, 0.0, 1.709067780120686E9, 0.0, 2024-02-27 13:03:00.120
70.0, 199.30300853867084, -1746.0657918127254, 296.89943778235465, 365.7210767669603, -0.0800000037997961, 0.01600000075995922, 1.0240000486373901, 0.0, 0.0, 0.0, 0.0, 0.0, 1.709067780120686E9, 0.0, 2024-02-27 13:03:00.120
71.0, 142.85669850744307, -1887.6584041351452, 257.73520544636995, 325.68918764125556, -0.0800000037997961, 0.0, 1.0240000486373901, 0.0, 0.0, 0.0, 0.0, 0.0, 1.709067780124352E9, 0.0, 2024-02-27 13:03:00.124
71.0, -0.5422854935750365, -2026.4348717909306, 75.80403220187873, 107.14439383056015, -0.0800000037997961, 0.0, 1.0240000486373901, 0.0, 0.0, 0.0, 0.0, 0.0, 1.709067780124352E9, 0.0, 2024-02-27 13:03:00.124
76.0, -33.74885720014572, -2129.151224073954, 65.96061551850289, 100.07972281426191, -0.0800000037997961, 0.0, 1.0240000486373901, 0.0, 0.0, 0.0, 0.0, 0.0, 1.709067780501239E9, 0.0, 2024-02-27 13:03:00.501
76.0, -194.29902239795774, -2308.3036516513675, -154.6261636679992, -141.55521332286298, -0.0800000037997961, 0.0, 1.0240000486373901, 0.0, 0.0, 0.0, 0.0, 0.0, 1.709067780501239E9, 0.0, 2024-02-27 13:03:00.501
85.0, -237.61828358471394, -2300.158149547875, -256.77031125780195, -272.43675217218697, -0.0800000037997961, 0.0, 1.0240000486373901, 0.0, 0.0, 0.0, 0.0, 0.0, 1.709067780668566E9, 0.0, 2024-02-27 13:03:00.668
85.0, -70.26150046754628, -2072.547838244587, -54.901731349527836, -40.95190451480448, -0.0800000037997961, 0.0, 1.0240000486373901, 0.0, 0.0, 0.0, 0.0, 0.0, 1.709067780668566E9, 0.0, 2024-02-27 13:03:00.668
86.0, -133.40597131941468, -2228.0042597027496, -98.42294713389128, -79.19986136164516, -0.0800000037997961, 0.0, 1.0240000486373901, 0.0, 0.0, 0.0, 0.0, 0.0, 1.70906778067153E9, 0.0, 2024-02-27 13:03:00.671
86.0, -287.23179639689624, -2376.7251213407144, -291.05023425165564, -308.6651630429551, -0.0800000037997961, 0.0, 1.0240000486373901, 0.0, 0.0, 0.0, 0.0, 0.0, 1.70906778067153E9, 0.0, 2024-02-27 13:03:00.671
87.0, -100.55095020867884, -2609.1056750374846, -98.42294713389128, -85.72224688436836, -0.0800000037997961, 0.0, 1.0240000486373901, 0.0, 0.0, 0.0, 0.0, 0.0, 1.709067780674545E9, 0.0, 2024-02-27 13:03:00.674
87.0, -98.03773743845522, -2636.0292148184963, -73.26464013196528, -76.81754508987069, -0.0800000037997961, 0.0, 1.0240000486373901, 0.0, 0.0, 0.0, 0.0, 0.0, 1.709067780674545E9, 0.0, 2024-02-27 13:03:00.674
88.0, -272.3133354736492, -2869.3989720535465, -254.37303538620472, -293.4288106234744, -0.0800000037997961, 0.0, 1.0240000486373901, 0.0, 0.0, 0.0, 0.0, 0.0, 1.709067780677652E9, 0.0, 2024-02-27 13:03:00.677
88.0, -177.17028060089797, -2686.7908769170754, -173.94274693913758, -213.20421667397022, -0.0800000037997961, 0.0, 1.0240000486373901, 0.0, 0.0, 0.0, 0.0, 0.0, 1.709067780677652E9, 0.0, 2024-02-27 13:03:00.677
89.0, -95.04955737385899, -2587.391815894749, -69.00863398239017, -95.36744887009263, -0.0800000037997961, 0.0, 1.0240000486373901, 0.0, 0.0, 0.0, 0.0, 0.0, 1.709067780788205E9, 0.0, 2024-02-27 13:03:00.788
89.0, -209.70367031544447, -2804.9604958170094, -164.54437835048884, -196.36344717349857, -0.0800000037997961, 0.0, 1.0240000486373901, 0.0, 0.0, 0.0, 0.0, 0.0, 1.709067780788205E9, 0.0, 2024-02-27 13:03:00.788
90.0, -258.3111500395462, -2787.596140322741, -264.0070176720619, -323.06003797240555, -0.0800000037997961, 0.0, 1.008000047877431, 0.0, 0.0, 0.0, 0.0, 0.0, 1.709067780791401E9, 0.0, 2024-02-27 13:03:00.791
90.0, -87.00129266921431, -2565.139411158394, -70.06702566985041, -101.16429380141199, -0.0800000037997961, 0.0, 1.008000047877431, 0.0, 0.0, 0.0, 0.0, 0.0, 1.709067780791401E9, 0.0, 2024-02-27 13:03:00.791
25.0, 77.91333577688783, -2340.296625822317, 130.724463051185, 120.11436687689275, -0.0800000037997961, 0.0, 1.008000047877431, 0.0, 0.0, 0.0, 0.0, 0.0, 1.709067780794623E9, 0.0, 2024-02-27 13:03:00.794
25.0, 29.541469749994576, -2478.1867371886037, 97.51415144465864, 94.98223917465657, -0.0800000037997961, 0.0, 1.008000047877431, 0.0, 0.0, 0.0, 0.0, 0.0, 1.709067780794623E9, 0.0, 2024-02-27 13:03:00.794
41.0, -122.79213524516672, -2636.6051594116725, -96.0443707620725, -134.78225450310856, -0.0800000037997961, 0.01600000075995922, 1.008000047877431, 0.0, 0.0, 0.0, 0.0, 0.0, 1.709067780832545E9, 0.0, 2024-02-27 13:03:00.832
41.0, 64.78628693241626, -2855.967121362686, 112.67944576498121, 105.26696405280381, -0.0800000037997961, 0.01600000075995922, 1.008000047877431, 0.0, 0.0, 0.0, 0.0, 0.0, 1.709067780832545E9, 0.0, 2024-02-27 13:03:00.832
42.0, 73.2945593316108, -2884.3193029267713, 141.18870312720537, 141.61505172215402, -0.06400000303983688, 0.01600000075995922, 1.008000047877431, 0.0, 0.0, 0.0, 0.0, 0.0, 1.709067780835465E9, 0.0, 2024-02-27 13:03:00.835
42.0, -74.02009992301464, -3099.845997473225, -25.992304692044854, -33.614220801740885, -0.06400000303983688, 0.01600000075995922, 1.008000047877431, 0.0, 0.0, 0.0, 0.0, 0.0, 1.709067780835465E9, 0.0, 2024-02-27 13:03:00.835
43.0, 8.231519802473485, -2925.9369096336886, 42.806894892826676, 40.495636720210314, -0.06400000303983688, 0.01600000075995922, 1.008000047877431, 0.0, 0.0, 0.0, 0.0, 0.0, 1.709067780951502E9, 0.0, 2024-02-27 13:03:00.951
43.0, 96.63527495507151, -2811.0621425947174, 162.32287777680904, 178.06411669030786, -0.06400000303983688, 0.01600000075995922, 1.008000047877431, 0.0, 0.0, 0.0, 0.0, 0.0, 1.709067780951502E9, 0.0, 2024-02-27 13:03:00.951
44.0, -5.460253935307264, -3023.791391974315, 80.3704500477761, 104.30580976419151, -0.06400000303983688, 0.01600000075995922, 1.008000047877431, 0.0, 0.0, 0.0, 0.0, 0.0, 1.709067780954388E9, 0.0, 2024-02-27 13:03:00.954
44.0, -66.97412840649486, -3032.610076069832, -38.18063864763826, -38.060961849056184, -0.06400000303983688, 0.01600000075995922, 1.008000047877431, 0.0, 0.0, 0.0, 0.0, 0.0, 1.709067780954388E9, 0.0, 2024-02-27 13:03:00.954
53.0, 10.662454773671925, -2869.262465705164, 28.19510576594621, 26.250357788987458, -0.06400000303983688, 0.01600000075995922, 1.008000047877431, 0.0, 0.0, 0.0, 0.0, 0.0, 1.709067780996948E9, 0.0, 2024-02-27 13:03:00.996
53.0, 99.01759122684598, -2763.909483953379, 134.10907251108438, 142.83799900766462, -0.06400000303983688, 0.01600000075995922, 1.008000047877431, 0.0, 0.0, 0.0, 0.0, 0.0, 1.709067780996948E9, 0.0, 2024-02-27 13:03:00.996
54.0, -3.377129659987986, -2980.300095389597, 45.7988148573786, 58.81740660313517, -0.06400000303983688, 0.01600000075995922, 1.008000047877431, 0.0, 0.0, 0.0, 0.0, 0.0, 1.709067780999899E9, 0.0, 2024-02-27 13:03:00.999
54.0, -66.64875711034983, -2988.8457667883486, -74.05375902261585, -91.24981901887804, -0.06400000303983688, 0.01600000075995922, 1.008000047877431, 0.0, 0.0, 0.0, 0.0, 0.0, 1.709067780999899E9, 0.0, 2024-02-27 13:03:00.999
55.0, 95.04207757394761, -2758.4641896178946, 123.84678703267127, 136.51756808254868, -0.06400000303983688, 0.01600000075995922, 1.008000047877431, 0.0, 0.0, 0.0, 0.0, 0.0, 1.70906778100305E9, 0.0, 2024-02-27 13:03:01.003
55.0, 50.22311650495976, -2898.0073367645964, 93.48253929242492, 109.77354349941015, -0.06400000303983688, 0.01600000075995922, 1.008000047877431, 0.0, 0.0, 0.0, 0.0, 0.0, 1.70906778100305E9, 0.0, 2024-02-27 13:03:01.003
58.0, 133.19279702194035, -2729.7155786585063, 157.99207362812012, 181.2392917526886, -0.06400000303983688, 0.01600000075995922, 1.008000047877431, 0.0, 0.0, 0.0, 0.0, 0.0, 1.709067781058202E9, 0.0, 2024-02-27 13:03:01.058
58.0, 223.43284305278212, -2611.6506769573316, 267.10739473532885, 306.78773326519877, -0.06400000303983688, 0.01600000075995922, 1.008000047877431, 0.0, 0.0, 0.0, 0.0, 0.0, 1.709067781058202E9, 0.0, 2024-02-27 13:03:01.058
59.0, 127.24261619243771, -2825.8983257189393, 185.5289570018649, 219.82009969558567, -0.06400000303983688, 0.01600000075995922, 1.008000047877431, 0.0, 0.0, 0.0, 0.0, 0.0, 1.709067781061561E9, 0.0, 2024-02-27 13:03:01.061
59.0, 56.41639083158225, -2835.405151406303, 69.00863398239017, 80.53126574587077, -0.06400000303983688, 0.01600000075995922, 1.008000047877431, 0.0, 0.0, 0.0, 0.0, 0.0, 1.709067781061561E9, 0.0, 2024-02-27 13:03:01.061
70.0, 224.55855293944478, -2599.2790879039094, 277.7174909096211, 307.53571325633675, -0.06400000303983688, 0.01600000075995922, 1.008000047877431, 0.0, 0.0, 0.0, 0.0, 0.0, 1.709067781064232E9, 0.0, 2024-02-27 13:03:01.064
70.0, 182.7502113347873, -2723.1857133358717, 257.47341244947165, 294.19175021443516, -0.06400000303983688, 0.01600000075995922, 1.008000047877431, 0.0, 0.0, 0.0, 0.0, 0.0, 1.709067781064232E9, 0.0, 2024-02-27 13:03:01.064
71.0, 27.061916079372168, -2890.8529081493616, 56.22565593384206, 55.1747440462932, -0.06400000303983688, 0.01600000075995922, 1.008000047877431, 0.0, 0.0, 0.0, 0.0, 0.0, 1.709067781066923E9, 0.0, 2024-02-27 13:03:01.066
71.0, 199.48626363649964, -3119.8937311857007, 252.68260060623288, 279.29198879096657, -0.06400000303983688, 0.01600000075995922, 1.008000047877431, 0.0, 0.0, 0.0, 0.0, 0.0, 1.709067781066923E9, 0.0, 2024-02-27 13:03:01.066
74.0, 103.25489787664264, -3328.4866512143053, 169.24169269483536, 210.60124630481005, -0.06400000303983688, 0.01600000075995922, 1.008000047877431, 0.0, 0.0, 0.0, 0.0, 0.0, 1.709067781072045E9, 0.0, 2024-02-27 13:03:01.072
74.0, 40.11416692472994, -3337.3240348096006, 50.107179606333375, 67.62861089874059, -0.06400000303983688, 0.01600000075995922, 1.008000047877431, 0.0, 0.0, 0.0, 0.0, 0.0, 1.709067781072045E9, 0.0, 2024-02-27 13:03:01.072
75.0, 205.78051526192576, -3100.812761611771, 255.10231587756425, 298.31311996560544, -0.06400000303983688, 0.01600000075995922, 1.008000047877431, 0.0, 0.0, 0.0, 0.0, 0.0, 1.709067781075067E9, 0.0, 2024-02-27 13:03:01.075
75.0, 154.5588454687968, -3249.144673654344, 218.26430131401867, 267.9451323254034, -0.06400000303983688, 0.01600000075995922, 1.008000047877431, 0.0, 0.0, 0.0, 0.0, 0.0, 1.709067781075067E9, 0.0, 2024-02-27 13:03:01.075
76.0, -3.537945358082652, -3412.8625341146253, 15.905794511549175, 34.69505188893527, -0.06400000303983688, 0.01600000075995922, 1.008000047877431, 0.0, 0.0, 0.0, 0.0, 0.0, 1.709067781205841E9, 0.0, 2024-02-27 13:03:01.205
76.0, 163.10825676750392, -3648.5715987719595, 210.62742560449988, 250.64809503033757, -0.06400000303983688, 0.01600000075995922, 1.008000047877431, 0.0, 0.0, 0.0, 0.0, 0.0, 1.709067781205841E9, 0.0, 2024-02-27 13:03:01.205
80.0, 325.7864250401035, -3403.724088572897, 415.2448319802061, 476.42959525529295, -0.06400000303983688, 0.01600000075995922, 1.0240000486373901, 0.0, 0.0, 0.0, 0.0, 0.0, 1.709067781223199E9, 0.0, 2024-02-27 13:03:01.223
80.0, 283.52555554080755, -3525.282056832686, 400.1618154589087, 459.61500505451113, -0.06400000303983688, 0.01600000075995922, 1.0240000486373901, 0.0, 0.0, 0.0, 0.0, 0.0, 1.709067781223199E9, 0.0, 2024-02-27 13:03:01.223
81.0, 138.30150036141276, -3679.6015487043187, 207.25777574442327, 234.891896517016, -0.06400000303983688, 0.01600000075995922, 1.0240000486373901, 0.0, 0.0, 0.0, 0.0, 0.0, 1.709067781226096E9, 0.0, 2024-02-27 13:03:01.226
81.0, 314.06183867901564, -3903.466350201983, 404.10740991216153, 462.6256245188415, -0.06400000303983688, 0.01600000075995922, 1.0240000486373901, 0.0, 0.0, 0.0, 0.0, 0.0, 1.709067781226096E9, 0.0, 2024-02-27 13:03:01.226
82.0, 326.24269283469766, -3915.5836260584183, 442.86399315297604, 498.30053019616753, -0.0800000037997961, 0.01600000075995922, 1.0240000486373901, 0.0, 0.0, 0.0, 0.0, 0.0, 1.70906778122917E9, 0.0, 2024-02-27 13:03:01.229
82.0, 174.75804512947798, -4145.853006230202, 271.1651861872524, 321.2611460937187, -0.0800000037997961, 0.01600000075995922, 1.0240000486373901, 0.0, 0.0, 0.0, 0.0, 0.0, 1.70906778122917E9, 0.0, 2024-02-27 13:03:01.229
83.0, 248.38919545710087, -3977.976377019193, 326.98319302592427, 373.9488566694781, -0.0800000037997961, 0.01600000075995922, 1.0240000486373901, 0.0, 0.0, 0.0, 0.0, 0.0, 1.709067781231958E9, 0.0, 2024-02-27 13:03:01.231
83.0, 331.714166469872, -3877.3730682111345, 432.5343894753605, 487.1219692286104, -0.0800000037997961, 0.01600000075995922, 1.0240000486373901, 0.0, 0.0, 0.0, 0.0, 0.0, 1.709067781231958E9, 0.0, 2024-02-27 13:03:01.231
84.0, 226.69403581414372, -4103.898808527272, 341.7931968504563, 408.5691105592996, -0.0800000037997961, 0.01600000075995922, 1.0240000486373901, 0.0, 0.0, 0.0, 0.0, 0.0, 1.709067781281484E9, 0.0, 2024-02-27 13:03:01.281
84.0, 154.32697167154402, -4150.359585676808, 196.69629826955497, 246.8969753747806, -0.0800000037997961, 0.01600000075995922, 1.0240000486373901, 0.0, 0.0, 0.0, 0.0, 0.0, 1.709067781281484E9, 0.0, 2024-02-27 13:03:01.281
85.0, 291.38308534771204, -3957.377008063253, 365.03667507506907, 448.08489349111915, -0.0800000037997961, 0.01600000075995922, 1.0240000486373901, 0.0, 0.0, 0.0, 0.0, 0.0, 1.709067781388618E9, 0.0, 2024-02-27 13:03:01.388
85.0, 224.30797964241356, -4151.986442157533, 292.4003381356597, 395.0867712190375, -0.0800000037997961, 0.01600000075995922, 1.0240000486373901, 0.0, 0.0, 0.0, 0.0, 0.0, 1.709067781388618E9, 0.0, 2024-02-27 13:03:01.388
95.0, 378.3245396176353, -3934.447681434918, 477.12895654700696, 611.9149509500712, -0.0800000037997961, 0.01600000075995922, 1.0240000486373901, 0.0, 0.0, 0.0, 0.0, 0.0, 1.70906778139201E9, 0.0, 2024-02-27 13:03:01.392
95.0, 324.53729845490307, -4084.473768157419, 434.15750605612993, 576.9020075649023, -0.0800000037997961, 0.01600000075995922, 1.0240000486373901, 0.0, 0.0, 0.0, 0.0, 0.0, 1.70906778139201E9, 0.0, 2024-02-27 13:03:01.392
97.0, 339.44453967828304, -4093.445788151119, 468.98345444351435, 613.1640775352716, -0.0800000037997961, 0.01600000075995922, 1.0240000486373901, 0.0, 0.0, 0.0, 0.0, 0.0, 1.709067781395177E9, 0.0, 2024-02-27 13:03:01.395
97.0, 178.0828161900863, -4335.376176384743, 295.01826810464263, 420.7611844148487, -0.0800000037997961, 0.01600000075995922, 1.0240000486373901, 0.0, 0.0, 0.0, 0.0, 0.0, 1.709067781395177E9, 0.0, 2024-02-27 13:03:01.395
98.0, 259.81458982173353, -4178.371436344925, 345.10300831124187, 474.4885871782899, -0.0800000037997961, 0.01600000075995922, 1.0240000486373901, 0.0, 0.0, 0.0, 0.0, 0.0, 1.709067781398422E9, 0.0, 2024-02-27 13:03:01.398
98.0, 346.3184757968411, -4061.338747031521, 455.3926580045372, 594.56181515567, -0.0800000037997961, 0.01600000075995922, 1.0240000486373901, 0.0, 0.0, 0.0, 0.0, 0.0, 1.709067781398422E9, 0.0, 2024-02-27 13:03:01.398
99.0, 251.74388571735471, -4266.015991806518, 386.94874891545624, 521.4841700214893, -0.0800000037997961, 0.01600000075995922, 1.0240000486373901, 0.0, 0.0, 0.0, 0.0, 0.0, 1.709067781402032E9, 0.0, 2024-02-27 13:03:01.402
99.0, 190.3085491452366, -4278.391320759896, 266.8605613382533, 372.07890669163316, -0.0800000037997961, 0.01600000075995922, 1.0240000486373901, 0.0, 0.0, 0.0, 0.0, 0.0, 1.709067781402032E9, 0.0, 2024-02-27 13:03:01.402
100.0, 367.46013024635613, -4513.905910619535, 481.3774828966707, 605.3028078284115, -0.0800000037997961, 0.01600000075995922, 1.008000047877431, 0.0, 0.0, 0.0, 0.0, 0.0, 1.709067781430453E9, 0.0, 2024-02-27 13:03:01.430
100.0, 340.32715606782585, -4617.377722693607, 478.8642701264471, 596.4654242331162, -0.0800000037997961, 0.01600000075995922, 1.008000047877431, 0.0, 0.0, 0.0, 0.0, 0.0, 1.709067781430453E9, 0.0, 2024-02-27 13:03:01.430
2.0, 173.14240834861994, -4855.725286769681, 321.91188868600875, 411.0037854304537, -0.06400000303983688, 0.01600000075995922, 1.008000047877431, 0.0, 0.0, 0.0, 0.0, 0.0, 1.709067781446271E9, 0.0, 2024-02-27 13:03:01.446
2.0, 248.0451246611774, -4700.396021910012, 363.03956849873066, 460.8865710394457, -0.06400000303983688, 0.01600000075995922, 1.008000047877431, 0.0, 0.0, 0.0, 0.0, 0.0, 1.709067781446271E9, 0.0, 2024-02-27 13:03:01.446
13.0, 343.29289673268795, -4580.9922360247, 483.54662487097085, 593.6156204668805, -0.06400000303983688, 0.01600000075995922, 1.008000047877431, 0.0, 0.0, 0.0, 0.0, 0.0, 1.709067781463116E9, 0.0, 2024-02-27 13:03:01.463
13.0, 241.36192344035953, -4783.4367605261505, 402.32347763329744, 514.5503955036402, -0.06400000303983688, 0.01600000075995922, 1.008000047877431, 0.0, 0.0, 0.0, 0.0, 0.0, 1.709067781463116E9, 0.0, 2024-02-27 13:03:01.463
14.0, 172.99655225034803, -4803.718237985857, 279.6584989866242, 363.9072252884507, -0.06400000303983688, 0.01600000075995922, 1.008000047877431, 0.0, 0.0, 0.0, 0.0, 0.0, 1.709067781506892E9, 0.0, 2024-02-27 13:03:01.506
14.0, 335.58496292401105, -4581.104433023371, 477.34961064439267, 586.880060646683, -0.06400000303983688, 0.01600000075995922, 1.008000047877431, 0.0, 0.0, 0.0, 0.0, 0.0, 1.709067781506892E9, 0.0, 2024-02-27 13:03:01.506
15.0, 290.08534006308764, -4709.644794500433, 447.44911049865186, 568.9958590585738, -0.06400000303983688, 0.01600000075995922, 1.008000047877431, 0.0, 0.0, 0.0, 0.0, 0.0, 1.709067781509796E9, 0.0, 2024-02-27 13:03:01.509
15.0, 134.53168120607734, -4877.611181310378, 249.2306729471311, 331.6730275703594, -0.06400000303983688, 0.01600000075995922, 1.008000047877431, 0.0, 0.0, 0.0, 0.0, 0.0, 1.709067781509796E9, 0.0, 2024-02-27 13:03:01.509
16.0, 303.42556320503354, -5116.72355492739, 434.1649858560413, 550.1579829817638, -0.06400000303983688, 0.01600000075995922, 1.008000047877431, 0.0, 0.0, 0.0, 0.0, 0.0, 1.709067781512868E9, 0.0, 2024-02-27 13:03:01.512
16.0, 321.8296108869836, -5128.97546718223, 471.61260411236435, 587.9908109335229, -0.06400000303983688, 0.01600000075995922, 1.008000047877431, 0.0, 0.0, 0.0, 0.0, 0.0, 1.709067781512868E9, 0.0, 2024-02-27 13:03:01.512
17.0, 162.9250016696751, -5362.412542616483, 309.0728121381253, 409.7135199457407, -0.06400000303983688, 0.01600000075995922, 1.008000047877431, 0.0, 0.0, 0.0, 0.0, 0.0, 1.709067781553056E9, 0.0, 2024-02-27 13:03:01.553
17.0, 233.65024973172694, -5211.582377403509, 348.3043626733124, 452.2848011413589, -0.06400000303983688, 0.01600000075995922, 1.008000047877431, 0.0, 0.0, 0.0, 0.0, 0.0, 1.709067781553056E9, 0.0, 2024-02-27 13:03:01.553
18.0, 328.6661480059847, -5087.758029770572, 469.2190681407228, 587.9234927343205, -0.06400000303983688, 0.01600000075995922, 1.008000047877431, 0.0, 0.0, 0.0, 0.0, 0.0, 1.709067781556329E9, 0.0, 2024-02-27 13:03:01.556
18.0, 235.54637900926173, -5296.747379194479, 394.97831412032247, 512.4111727289855, -0.06400000303983688, 0.01600000075995922, 1.008000047877431, 0.0, 0.0, 0.0, 0.0, 0.0, 1.709067781556329E9, 0.0, 2024-02-27 13:03:01.556
19.0, 159.58901090919971, -5316.10510136513, 265.43565945513546, 361.4987297169864, -0.06400000303983688, 0.01600000075995922, 1.008000047877431, 0.0, 0.0, 0.0, 0.0, 0.0, 1.709067781559545E9, 0.0, 2024-02-27 13:03:01.559
19.0, 324.1221695598215, -5092.978930108715, 462.5059477202594, 582.0742892036214, -0.06400000303983688, 0.01600000075995922, 1.008000047877431, 0.0, 0.0, 0.0, 0.0, 0.0, 1.709067781559545E9, 0.0, 2024-02-27 13:03:01.559
20.0, 282.96457054745406, -5219.739099206869, 434.0677484571934, 560.4950664592907, -0.06400000303983688, 0.01600000075995922, 1.0240000486373901, 0.0, 0.0, 0.0, 0.0, 0.0, 1.709067781562678E9, 0.0, 2024-02-27 13:03:01.562
20.0, 127.6166061880067, -5389.373481397051, 237.16575569007546, 329.5599840953946, -0.06400000303983688, 0.01600000075995922, 1.0240000486373901, 0.0, 0.0, 0.0, 0.0, 0.0, 1.709067781562678E9, 0.0, 2024-02-27 13:03:01.562
25.0, 83.6690418086946, -5513.276366929058, 211.67085769213736, 307.7339279539883, -0.06400000303983688, 0.01600000075995922, 1.0240000486373901, 0.0, 0.0, 0.0, 0.0, 0.0, 1.709067781566774E9, 0.0, 2024-02-27 13:03:01.566
25.0, -66.81331270840019, -5681.104377440643, 17.31199689488858, 76.58567129261792, -0.06400000303983688, 0.01600000075995922, 1.0240000486373901, 0.0, 0.0, 0.0, 0.0, 0.0, 1.709067781566774E9, 0.0, 2024-02-27 13:03:01.566
26.0, 96.21640616003424, -5921.1105871470645, 197.2423236630857, 289.53183486964554, -0.06400000303983688, 0.01600000075995922, 1.0240000486373901, 0.0, 0.0, 0.0, 0.0, 0.0, 1.709067781569753E9, 0.0, 2024-02-27 13:03:01.569
26.0, 117.8704269034788, -5934.01698189415, 230.20206197258085, 324.2642857581377, -0.06400000303983688, 0.01600000075995922, 1.0240000486373901, 0.0, 0.0, 0.0, 0.0, 0.0, 1.709067781569753E9, 0.0, 2024-02-27 13:03:01.569
27.0, -44.2804154753685, -6170.599313191138, 63.346425449475646, 142.74450150877237, -0.06400000303983688, 0.01600000075995922, 1.0240000486373901, 0.0, 0.0, 0.0, 0.0, 0.0, 1.709067781613069E9, 0.0, 2024-02-27 13:03:01.613
27.0, 29.470411650836468, -6015.251348831691, 107.72407832369208, 185.44293930288404, -0.06400000303983688, 0.01600000075995922, 1.0240000486373901, 0.0, 0.0, 0.0, 0.0, 0.0, 1.709067781613069E9, 0.0, 2024-02-27 13:03:01.613
29.0, -39.52700263168663, -6038.487347256392, -21.867195040918887, 31.84150822274387, -0.06400000303983688, 0.01600000075995922, 1.0240000486373901, 0.0, 0.0, 0.0, 0.0, 0.0, 1.709067781616189E9, 0.0, 2024-02-27 13:03:01.616
29.0, 123.01652924250811, -5810.072957462631, 175.61448221933097, 251.60924931894988, -0.06400000303983688, 0.01600000075995922, 1.0240000486373901, 0.0, 0.0, 0.0, 0.0, 0.0, 1.709067781616189E9, 0.0, 2024-02-27 13:03:01.616
30.0, 80.20589444972575, -5942.125084998086, 153.06288548652083, 234.49172722175717, -0.06400000303983688, 0.01600000075995922, 1.0240000486373901, 0.0, 0.0, 0.0, 0.0, 0.0, 1.709067781619523E9, 0.0, 2024-02-27 13:03:01.619
30.0, -72.99162743519992, -6115.095457948744, -45.46222386136651, 4.43552134744823, -0.06400000303983688, 0.01600000075995922, 1.0240000486373901, 0.0, 0.0, 0.0, 0.0, 0.0, 1.709067781619523E9, 0.0, 2024-02-27 13:03:01.619
31.0, 93.05993059743196, -6352.412679587025, 139.89469774253666, 215.96052294131368, -0.06400000303983688, 0.01600000075995922, 1.0240000486373901, 0.0, 0.0, 0.0, 0.0, 0.0, 1.709067781622958E9, 0.0, 2024-02-27 13:03:01.622
31.0, 115.42079243250191, -6362.435611468274, 171.6053094668314, 254.12620198912919, -0.06400000303983688, 0.01600000075995922, 1.0240000486373901, 0.0, 0.0, 0.0, 0.0, 0.0, 1.709067781622958E9, 0.0, 2024-02-27 13:03:01.622
32.0, -45.34254706278443, -6594.178512222599, 9.23381299059838, 66.94794910680503, -0.06400000303983688, 0.01600000075995922, 1.0240000486373901, 0.0, 0.0, 0.0, 0.0, 0.0, 1.709067781716393E9, 0.0, 2024-02-27 13:03:01.716
32.0, 27.667779872193933, -6440.4387048440985, 51.89485178515315, 114.14548654761165, -0.06400000303983688, 0.01600000075995922, 1.0240000486373901, 0.0, 0.0, 0.0, 0.0, 0.0, 1.709067781716393E9, 0.0, 2024-02-27 13:03:01.716
33.0, 121.58040765952319, -6317.725107498001, 171.4931124681607, 249.54856444336474, -0.06400000303983688, 0.01600000075995922, 1.0240000486373901, 0.0, 0.0, 0.0, 0.0, 0.0, 1.709067781764586E9, 0.0, 2024-02-27 13:03:01.764
33.0, 20.348795658908784, -6523.812294556294, 100.3826547106728, 178.4904652852565, -0.06400000303983688, 0.01600000075995922, 1.0240000486373901, 0.0, 0.0, 0.0, 0.0, 0.0, 1.709067781764586E9, 0.0, 2024-02-27 13:03:01.764
34.0, -53.42447086703032, -6547.10439148033, -34.53049629088491, 21.066856450401247, -0.06400000303983688, 0.01600000075995922, 1.0240000486373901, 0.0, 0.0, 0.0, 0.0, 0.0, 1.709067781767858E9, 0.0, 2024-02-27 13:03:01.767
34.0, 119.03727568965405, -6311.531833171379, 169.87373578734696, 244.06587110832334, -0.06400000303983688, 0.01600000075995922, 1.0240000486373901, 0.0, 0.0, 0.0, 0.0, 0.0, 1.709067781767858E9, 0.0, 2024-02-27 13:03:01.767
35.0, 78.91188906505704, -6442.933218114544, 147.87938414793462, 231.06223896238953, -0.06400000303983688, 0.01600000075995922, 1.0240000486373901, 0.0, 0.0, 0.0, 0.0, 0.0, 1.709067781770964E9, 0.0, 2024-02-27 13:03:01.770
35.0, -77.46454778220505, -6604.407138601411, -46.25882255192846, 0.4113889951258898, -0.06400000303983688, 0.01600000075995922, 1.0240000486373901, 0.0, 0.0, 0.0, 0.0, 0.0, 1.709067781770964E9, 0.0, 2024-02-27 13:03:01.770
36.0, 90.24378593079746, -6835.325391415507, 142.0339205171913, 209.55781421717256, -0.06400000303983688, 0.01600000075995922, 1.0240000486373901, 0.0, 0.0, 0.0, 0.0, 0.0, 1.709067781774165E9, 0.0, 2024-02-27 13:03:01.774
36.0, 121.00072316639125, -6836.548338701017, 186.6471870886162, 257.5332508487627, -0.06400000303983688, 0.01600000075995922, 1.0240000486373901, 0.0, 0.0, 0.0, 0.0, 0.0, 1.709067781774165E9, 0.0, 2024-02-27 13:03:01.774
37.0, -32.2005386184901, -7067.079511869699, 25.80156979430467, 84.00937270466238, -0.06400000303983688, 0.01600000075995922, 1.0240000486373901, 0.0, 0.0, 0.0, 0.0, 0.0, 1.709067781778463E9, 0.0, 2024-02-27 13:03:01.778
37.0, 37.33916115760803, -6900.717542140745, 75.71427460294217, 128.0279951831326, -0.06400000303983688, 0.01600000075995922, 1.0240000486373901, 0.0, 0.0, 0.0, 0.0, 0.0, 1.709067781778463E9, 0.0, 2024-02-27 13:03:01.778
38.0, 142.74450150877237, -6768.99452580139, 203.5440550884232, 269.3924736082554, -0.06400000303983688, 0.01600000075995922, 1.0240000486373901, 0.0, 0.0, 0.0, 0.0, 0.0, 1.709067781781552E9, 0.0, 2024-02-27 13:03:01.781
38.0, 47.39575213845819, -6969.815933722071, 130.04380125924945, 203.37201969046146, -0.06400000303983688, 0.01600000075995922, 1.0240000486373901, 0.0, 0.0, 0.0, 0.0, 0.0, 1.709067781781552E9, 0.0, 2024-02-27 13:03:01.781
46.0, 213.96715626493096, -7207.810077252332, 306.507240768522, 414.6763671869412, -0.06400000303983688, 0.01600000075995922, 1.0240000486373901, 0.0, 0.0, 0.0, 0.0, 0.0, 1.7090677817847E9, 0.0, 2024-02-27 13:03:01.784
46.0, 239.23392036557198, -7217.7918702340685, 344.81129611469805, 460.68461644183844, -0.06400000303983688, 0.01600000075995922, 1.0240000486373901, 0.0, 0.0, 0.0, 0.0, 0.0, 1.7090677817847E9, 0.0, 2024-02-27 13:03:01.784
50.0, 194.8375679915771, -7337.726721913088, 330.7567520812154, 448.33546678815037, -0.06400000303983688, 0.01600000075995922, 1.0240000486373901, 0.0, 0.0, 0.0, 0.0, 0.0, 1.709067781787952E9, 0.0, 2024-02-27 13:03:01.787
50.0, 38.59576754271984, -7507.589238000568, 125.27542881574482, 205.44018436595798, -0.06400000303983688, 0.01600000075995922, 1.0240000486373901, 0.0, 0.0, 0.0, 0.0, 0.0, 1.709067781787952E9, 0.0, 2024-02-27 13:03:01.787
51.0, 208.38348563108593, -7743.279603158124, 314.6751822717488, 418.1208150461316, -0.06400000303983688, 0.01600000075995922, 1.0240000486373901, 0.0, 0.0, 0.0, 0.0, 0.0, 1.709067781820364E9, 0.0, 2024-02-27 13:03:01.820
51.0, 237.9997533801943, -7745.2729698345065, 349.84520145505667, 461.9636622266844, -0.06400000303983688, 0.01600000075995922, 1.0240000486373901, 0.0, 0.0, 0.0, 0.0, 0.0, 1.709067781820364E9, 0.0, 2024-02-27 13:03:01.820
52.0, 80.01141965202987, -7985.834554684348, 193.8689339030534, 279.4378448892385, -0.0800000037997961, 0.01600000075995922, 1.0240000486373901, 0.0, 0.0, 0.0, 0.0, 0.0, 1.709067781837879E9, 0.0, 2024-02-27 13:03:01.837
52.0, 151.2602537078783, -7825.815455280244, 233.070565238595, 320.68894140049815, -0.0800000037997961, 0.01600000075995922, 1.0240000486373901, 0.0, 0.0, 0.0, 0.0, 0.0, 1.709067781837879E9, 0.0, 2024-02-27 13:03:01.837
53.0, 252.62650210689753, -7696.796386608854, 357.77752926107496, 457.42342368047684, -0.0800000037997961, 0.01600000075995922, 1.0240000486373901, 0.0, 0.0, 0.0, 0.0, 0.0, 1.709067781840619E9, 0.0, 2024-02-27 13:03:01.840
53.0, 151.2901729075238, -7902.460964972153, 286.5511346049607, 390.5128735732287, -0.0800000037997961, 0.01600000075995922, 1.0240000486373901, 0.0, 0.0, 0.0, 0.0, 0.0, 1.709067781840619E9, 0.0, 2024-02-27 13:03:01.840
54.0, 78.61643696855754, -7932.036093821749, 154.1437165737152, 224.6221312386915, -0.0800000037997961, 0.01600000075995922, 1.0240000486373901, 0.0, 0.0, 0.0, 0.0, 0.0, 1.709067781843548E9, 0.0, 2024-02-27 13:03:01.843
54.0, 247.9366675624624, -7689.6494377935305, 357.5007766643539, 458.7697876645252, -0.0800000037997961, 0.01600000075995922, 1.0240000486373901, 0.0, 0.0, 0.0, 0.0, 0.0, 1.709067781843548E9, 0.0, 2024-02-27 13:03:01.843
55.0, 210.64986500423402, -7804.782257929444, 345.9893646007404, 449.41629787534475, -0.0800000037997961, 0.01600000075995922, 1.0240000486373901, 0.0, 0.0, 0.0, 0.0, 0.0, 1.709067781897134E9, 0.0, 2024-02-27 13:03:01.897
55.0, 43.82040778081864, -7979.846974855289, 139.57680624630302, 207.78510163817555, -0.0800000037997961, 0.01600000075995922, 1.0240000486373901, 0.0, 0.0, 0.0, 0.0, 0.0, 1.709067781897134E9, 0.0, 2024-02-27 13:03:01.897
56.0, 214.82359335478395, -8216.109544706065, 323.3293107692152, 420.03564382344484, -0.0800000037997961, 0.01600000075995922, 1.0240000486373901, 0.0, 0.0, 0.0, 0.0, 0.0, 1.709067781900215E9, 0.0, 2024-02-27 13:03:01.900
56.0, 243.54228511452675, -8215.05489291856, 367.08988015074283, 465.9690950792283, -0.0800000037997961, 0.01600000075995922, 1.0240000486373901, 0.0, 0.0, 0.0, 0.0, 0.0, 1.709067781900215E9, 0.0, 2024-02-27 13:03:01.900
57.0, 81.09599063917994, -8444.991421994288, 209.46431671828032, 288.40986488293856, -0.0800000037997961, 0.01600000075995922, 1.0240000486373901, 0.0, 0.0, 0.0, 0.0, 0.0, 1.709067781942866E9, 0.0, 2024-02-27 13:03:01.942
57.0, 151.06203901022673, -8288.712222545873, 251.2726583229378, 323.68834116496146, -0.0800000037997961, 0.01600000075995922, 1.0240000486373901, 0.0, 0.0, 0.0, 0.0, 0.0, 1.709067781942866E9, 0.0, 2024-02-27 13:03:01.942
58.0, 251.99445901438594, -8154.543311635498, 376.7762210359797, 459.5102878557518, -0.0800000037997961, 0.01600000075995922, 1.0240000486373901, 0.0, 0.0, 0.0, 0.0, 0.0, 1.709067781945706E9, 0.0, 2024-02-27 13:03:01.945
58.0, 164.12550955545157, -8334.451199003961, 326.03325843717903, 405.633289094083, -0.0800000037997961, 0.01600000075995922, 1.0240000486373901, 0.0, 0.0, 0.0, 0.0, 0.0, 1.709067781945706E9, 0.0, 2024-02-27 13:03:01.945
59.0, 89.67532113753259, -8354.268928869162, 194.90114629082382, 245.29629819374532, -0.0800000037997961, 0.01600000075995922, 1.0240000486373901, 0.0, 0.0, 0.0, 0.0, 0.0, 1.709067781948879E9, 0.0, 2024-02-27 13:03:01.948
59.0, 262.55593648925424, -8121.123565631453, 400.7901186514646, 474.5633851774037, -0.0800000037997961, 0.01600000075995922, 1.0240000486373901, 0.0, 0.0, 0.0, 0.0, 0.0, 1.709067781948879E9, 0.0, 2024-02-27 13:03:01.948
60.0, 221.76110777258873, -8230.201487739105, 388.1043780017644, 464.0355668021366, -0.0800000037997961, 0.01600000075995922, 1.0240000486373901, 0.0, 0.0, 0.0, 0.0, 0.0, 1.709067781951861E9, 0.0, 2024-02-27 13:03:01.951
60.0, 74.5175066171214, -8380.44074875908, 203.82828748505563, 237.75291998311877, -0.0800000037997961, 0.01600000075995922, 1.0240000486373901, 0.0, 0.0, 0.0, 0.0, 0.0, 1.709067781951861E9, 0.0, 2024-02-27 13:03:01.951
61.0, 267.346748332493, -8581.776392923668, 418.019837747328, 469.16670954134315, -0.0800000037997961, 0.01600000075995922, 1.0240000486373901, 0.0, 0.0, 0.0, 0.0, 0.0, 1.709067781956039E9, 0.0, 2024-02-27 13:03:01.956
61.0, 319.16306221857667, -8539.362187526189, 486.94619393069297, 544.8211457449943, -0.0800000037997961, 0.01600000075995922, 1.0240000486373901, 0.0, 0.0, 0.0, 0.0, 0.0, 1.709067781956039E9, 0.0, 2024-02-27 13:03:01.956
64.0, 241.36192344035953, -8569.733915066347, 346.62514759320766, 376.555566938594, -0.0800000037997961, 0.01600000075995922, 1.0240000486373901, 0.0, 0.0, 0.0, 0.0, 0.0, 1.709067781959706E9, 0.0, 2024-02-27 13:03:01.959
64.0, 413.2664249036461, -8341.0988711752, 543.2092488640919, 609.4802760789171, -0.0800000037997961, 0.01600000075995922, 1.0240000486373901, 0.0, 0.0, 0.0, 0.0, 0.0, 1.709067781959706E9, 0.0, 2024-02-27 13:03:01.959
65.0, 370.9569367049262, -8470.723803639412, 516.3156282827258, 601.5255088731647, -0.0800000037997961, 0.01600000075995922, 1.0240000486373901, 0.0, 0.0, 0.0, 0.0, 0.0, 1.70906778200333E9, 0.0, 2024-02-27 13:03:02.003
65.0, 206.67435135133564, -8656.686589036137, 311.8814770048484, 360.30570163112134, -0.0800000037997961, 0.01600000075995922, 1.0240000486373901, 0.0, 0.0, 0.0, 0.0, 0.0, 1.70906778200333E9, 0.0, 2024-02-27 13:03:02.003
68.0, 305.83779867645353, -8541.273276403546, 431.0122501933947, 489.7511188974604, -0.0800000037997961, 0.01600000075995922, 1.0240000486373901, 0.0, 0.0, 0.0, 0.0, 0.0, 1.709067782006266E9, 0.0, 2024-02-27 13:03:02.006
68.0, 211.07621359918267, -8753.662194887176, 354.62479359842837, 424.9835314648226, -0.0800000037997961, 0.01600000075995922, 1.0240000486373901, 0.0, 0.0, 0.0, 0.0, 0.0, 1.709067782006266E9, 0.0, 2024-02-27 13:03:02.006
69.0, 122.58644074760377, -8796.203556883149, 204.33317397907376, 251.51201192010194, -0.0800000037997961, 0.01600000075995922, 1.0240000486373901, 0.0, 0.0, 0.0, 0.0, 0.0, 1.709067782009241E9, 0.0, 2024-02-27 13:03:02.009
69.0, 287.1345589980483, -8566.132391409017, 406.4822463840246, 481.3849626965821, -0.0800000037997961, 0.01600000075995922, 1.0240000486373901, 0.0, 0.0, 0.0, 0.0, 0.0, 1.709067782009241E9, 0.0, 2024-02-27 13:03:02.009
70.0, 248.2321196589619, -8689.799663243815, 384.7347281416878, 474.7840392747894, -0.0800000037997961, 0.01600000075995922, 0.9920000471174717, 0.0, 0.0, 0.0, 0.0, 0.0, 1.709067782012231E9, 0.0, 2024-02-27 13:03:02.012
70.0, 81.64201603271067, -8867.949797633104, 178.05663689039648, 716.0318957665004, -0.0800000037997961, 0.01600000075995922, 0.9920000471174717, 0.0, 0.0, 0.0, 0.0, 0.0, 1.709067782012231E9, 0.0, 2024-02-27 13:03:02.012
71.0, 252.6003228072077, -9101.355083917733, 359.5352822402492, 929.4418069380336, -0.0800000037997961, 0.01600000075995922, 0.9920000471174717, 0.0, 0.0, 0.0, 0.0, 0.0, 1.709067782108127E9, 0.0, 2024-02-27 13:03:02.108
71.0, 291.588779845275, -9097.562825362664, 407.40226177312434, 985.5477860732935, -0.0800000037997961, 0.01600000075995922, 0.9920000471174717, 0.0, 0.0, 0.0, 0.0, 0.0, 1.709067782108127E9, 0.0, 2024-02-27 13:03:02.108
72.0, 113.3152287574485, -8866.233183553442, 230.7742666658014, 785.6650930414908, -0.06400000303983688, 0.01600000075995922, 0.9920000471174717, 0.0, 0.0, 0.0, 0.0, 0.0, 1.709067782112407E9, 0.0, 2024-02-27 13:03:02.112
72.0, 141.63001132197678, -8775.39475352969, 217.38916472438723, 773.3944812868722, -0.06400000303983688, 0.01600000075995922, 0.9920000471174717, 0.0, 0.0, 0.0, 0.0, 0.0, 1.709067782112407E9, 0.0, 2024-02-27 13:03:02.112
73.0, 224.87644443567842, -8688.561756358482, 320.666502000764, 887.3828920363449, -0.06400000303983688, 0.01600000075995922, 0.9920000471174717, 0.0, 0.0, 0.0, 0.0, 0.0, 1.709067782115894E9, 0.0, 2024-02-27 13:03:02.115
73.0, 103.50173127371818, -8932.743564365432, 221.76110777258873, 796.0433154185303, -0.06400000303983688, 0.01600000075995922, 0.9920000471174717, 0.0, 0.0, 0.0, 0.0, 0.0, 1.709067782115894E9, 0.0, 2024-02-27 13:03:02.115
74.0, 14.581869927234948, -8979.559632010758, 79.57011145725846, 618.7346585192718, -0.06400000303983688, 0.01600000075995922, 0.9920000471174717, 0.0, 0.0, 0.0, 0.0, 0.0, 1.709067782118874E9, 0.0, 2024-02-27 13:03:02.118
74.0, 193.10973421204835, -8749.028458842076, 285.82185411360115, 849.8567358809523, -0.06400000303983688, 0.01600000075995922, 0.9920000471174717, 0.0, 0.0, 0.0, 0.0, 0.0, 1.709067782118874E9, 0.0, 2024-02-27 13:03:02.118
75.0, 135.15998439863324, -8884.697069634683, 256.9647860554978, 815.4421764886938, -0.06400000303983688, 0.01600000075995922, 0.9920000471174717, 0.0, 0.0, 0.0, 0.0, 0.0, 1.709067782152859E9, 0.0, 2024-02-27 13:03:02.152
75.0, -40.5741746192798, -9059.485033963807, 51.78639468643814, 1059.5473165465519, -0.06400000303983688, 0.01600000075995922, 0.9920000471174717, 0.0, 0.0, 0.0, 0.0, 0.0, 1.709067782152859E9, 0.0, 2024-02-27 13:03:02.152
76.0, 126.84992669709027, -8816.578531841747, 230.03002657461911, 1257.713395498693, -0.06400000303983688, 0.01600000075995922, 0.9920000471174717, 0.0, 0.0, 0.0, 0.0, 0.0, 1.709067782155558E9, 0.0, 2024-02-27 13:03:02.155
76.0, 167.62979581393301, -8813.85214477405, 281.1282796692103, 1311.1752653652802, -0.06400000303983688, 0.01600000075995922, 0.9920000471174717, 0.0, 0.0, 0.0, 0.0, 0.0, 1.709067782155558E9, 0.0, 2024-02-27 13:03:02.155
77.0, 24.08121581468731, -9040.299347191118, 128.1401921818033, 1131.6002290928736, -0.06400000303983688, 0.01600000075995922, 0.9920000471174717, 0.0, 0.0, 0.0, 0.0, 0.0, 1.709067782158723E9, 0.0, 2024-02-27 13:03:02.158
77.0, 95.25151197146624, -8884.008928042836, 163.4074487639591, 1161.5979666374624, -0.06400000303983688, 0.01600000075995922, 0.9920000471174717, 0.0, 0.0, 0.0, 0.0, 0.0, 1.709067782158723E9, 0.0, 2024-02-27 13:03:02.158
85.0, 47.717383534647524, -9005.43225990422, 139.7002229448408, 1148.7177511900663, -0.06400000303983688, 0.01600000075995922, 0.9920000471174717, 0.0, 0.0, 0.0, 0.0, 0.0, 1.709067782161852E9, 0.0, 2024-02-27 13:03:02.161
85.0, -125.5783607121557, -9191.593259998597, -72.0716120461002, 1392.718174049165, -0.06400000303983688, 0.01600000075995922, 0.9920000471174717, 0.0, 0.0, 0.0, 0.0, 0.0, 1.709067782161852E9, 0.0, 2024-02-27 13:03:02.161
86.0, 46.124186153523624, -9432.66534119239, 108.3486416162923, 1603.4465769524686, -0.06400000303983688, 0.01600000075995922, 0.9920000471174717, 0.0, 0.0, 0.0, 0.0, 0.0, 1.709067782167635E9, 0.0, 2024-02-27 13:03:02.167
86.0, 74.88027691282332, -9437.631928333547, 148.01402054633945, 1653.781890456099, -0.06400000303983688, 0.01600000075995922, 0.9920000471174717, 0.0, 0.0, 0.0, 0.0, 0.0, 1.709067782167635E9, 0.0, 2024-02-27 13:03:02.167
87.0, -93.35912259388715, -9680.340215757955, -16.182547108270228, 1467.0038068690337, -0.06400000303983688, 0.01600000075995922, 0.9920000471174717, 0.0, 0.0, 0.0, 0.0, 0.0, 1.709067782170718E9, 0.0, 2024-02-27 13:03:02.170
87.0, -31.02247013244778, -9537.71913094772, 13.381362041458488, 1496.2535644224845, -0.06400000303983688, 0.01600000075995922, 0.9920000471174717, 0.0, 0.0, 0.0, 0.0, 0.0, 1.709067782170718E9, 0.0, 2024-02-27 13:03:02.170
88.0, 73.05146583449095, -9408.382170780096, 140.48934183549136, 1637.790078245569, -0.06400000303983688, 0.01600000075995922, 0.9920000471174717, 0.0, 0.0, 0.0, 0.0, 0.0, 1.709067782173709E9, 0.0, 2024-02-27 13:03:02.173
88.0, -23.924140016548336, -9614.985464032274, 70.4410156654194, 1569.237712057773, -0.06400000303983688, 0.01600000075995922, 0.9920000471174717, 0.0, 0.0, 0.0, 0.0, 0.0, 1.709067782173709E9, 0.0, 2024-02-27 13:03:02.173
89.0, -108.4944977145642, -9655.297845654655, -77.5169063815847, 1397.5164656923153, -0.06400000303983688, 0.01600000075995922, 0.9920000471174717, 0.0, 0.0, 0.0, 0.0, 0.0, 1.709067782176852E9, 0.0, 2024-02-27 13:03:02.176
89.0, 63.45114264823496, -9417.485087272245, 131.29666774440557, 1634.8766961800866, -0.06400000303983688, 0.01600000075995922, 0.9920000471174717, 0.0, 0.0, 0.0, 0.0, 0.0, 1.709067782176852E9, 0.0, 2024-02-27 13:03:02.176
90.0, 23.542670221067965, -9537.85750724608, 107.86993442196399, 1614.6288778199814, -0.06400000303983688, 0.01600000075995922, 1.0240000486373901, 0.0, 0.0, 0.0, 0.0, 0.0, 1.70906778222845E9, 0.0, 2024-02-27 13:03:02.228
90.0, -135.65739109274, -9715.196083344985, -97.09902254957706, 1370.9295169073157, -0.06400000303983688, 0.01600000075995922, 1.0240000486373901, 0.0, 0.0, 0.0, 0.0, 0.0, 1.70906778222845E9, 0.0, 2024-02-27 13:03:02.228
91.0, 27.39850707538426, -9957.034844029695, 81.16704873833805, 1579.634633934591, -0.06400000303983688, 0.01600000075995922, 1.0240000486373901, 0.0, 0.0, 0.0, 0.0, 0.0, 1.709067782231479E9, 0.0, 2024-02-27 13:03:02.231
91.0, 59.20261629857123, -9960.146440792829, 124.07866082992405, 1630.85630372772, -0.06400000303983688, 0.01600000075995922, 1.0240000486373901, 0.0, 0.0, 0.0, 0.0, 0.0, 1.709067782231479E9, 0.0, 2024-02-27 13:03:02.231
92.0, -100.67062700726092, -10191.556490451097, -28.22128506563604, 1457.811132777948, -0.06400000303983688, 0.01600000075995922, 1.0240000486373901, 0.0, 0.0, 0.0, 0.0, 0.0, 1.709067782234179E9, 0.0, 2024-02-27 13:03:02.234
92.0, -37.52989605534822, -10055.61860686168, -6.757999219931662, 1475.9795667626895, -0.06400000303983688, 0.01600000075995922, 1.0240000486373901, 0.0, 0.0, 0.0, 0.0, 0.0, 1.709067782234179E9, 0.0, 2024-02-27 13:03:02.234
93.0, 69.16570978052914, -9915.503255021758, 128.55532107688487, 1629.2444068468176, -0.06400000303983688, 0.01600000075995922, 1.0240000486373901, 0.0, 0.0, 0.0, 0.0, 0.0, 1.709067782274767E9, 0.0, 2024-02-27 13:03:02.274
93.0, -27.200292377732694, -10116.52287764009, 60.79207377973944, 1563.3473696275614, -0.06400000303983688, 0.01600000075995922, 1.0240000486373901, 0.0, 0.0, 0.0, 0.0, 0.0, 1.709067782274767E9, 0.0, 2024-02-27 13:03:02.274
94.0, -112.29049616958946, -10154.838152686134, -81.8888494297862, 1391.4466080642305, -0.06400000303983688, 0.01600000075995922, 1.0240000486373901, 0.0, 0.0, 0.0, 0.0, 0.0, 1.709067782278674E9, 0.0, 2024-02-27 13:03:02.278
94.0, 64.84986523166299, -9913.857699041255, 121.0231625661254, 1622.194695430342, -0.06400000303983688, 0.01600000075995922, 1.0240000486373901, 0.0, 0.0, 0.0, 0.0, 0.0, 1.709067782278674E9, 0.0, 2024-02-27 13:03:02.278
95.0, 26.874921081587672, -10032.966032830067, 105.62225454859436, 1614.3596050231718, -0.06400000303983688, 0.01600000075995922, 1.0240000486373901, 0.0, 0.0, 0.0, 0.0, 0.0, 1.709067782281887E9, 0.0, 2024-02-27 13:03:02.281
95.0, -143.1820698035881, -10221.217636999674, -110.76835688762367, 1853.2550644427538, -0.06400000303983688, 0.01600000075995922, 1.0240000486373901, 0.0, 0.0, 0.0, 0.0, 0.0, 1.709067782281887E9, 0.0, 2024-02-27 13:03:02.281
96.0, 18.594782579690218, -9985.585240291432, 63.353905249387026, 2055.8304854426533, -0.06400000303983688, 0.01600000075995922, 1.0240000486373901, 0.0, 0.0, 0.0, 0.0, 0.0, 1.709067782285284E9, 0.0, 2024-02-27 13:03:02.285
96.0, 40.62653321865946, -9998.921723533422, 97.30471704714, 2099.3928401265293, -0.06400000303983688, 0.01600000075995922, 1.0240000486373901, 0.0, 0.0, 0.0, 0.0, 0.0, 1.709067782285284E9, 0.0, 2024-02-27 13:03:02.285
97.0, -132.16058463416994, -9765.636114047375, -85.0415850924328, 1907.3826365014538, -0.06400000303983688, 0.01600000075995922, 1.0240000486373901, 0.0, 0.0, 0.0, 0.0, 0.0, 1.709067782317111E9, 0.0, 2024-02-27 13:03:02.317
97.0, -96.90454775188118, -9672.104956055526, -91.8930818112567, 1901.4249758720398, -0.06400000303983688, 0.01600000075995922, 1.0240000486373901, 0.0, 0.0, 0.0, 0.0, 0.0, 1.709067782317111E9, 0.0, 2024-02-27 13:03:02.317
98.0, -9.405848388560116, -9567.234421398025, 18.14225468505174, 2026.6891849879175, -0.06400000303983688, 0.01600000075995922, 1.0240000486373901, 0.0, 0.0, 0.0, 0.0, 0.0, 1.709067782333374E9, 0.0, 2024-02-27 13:03:02.333
98.0, -150.71048841439188, -9360.22908890061, -112.37277396861464, 1920.816357142292, -0.06400000303983688, 0.01600000075995922, 1.0240000486373901, 0.0, 0.0, 0.0, 0.0, 0.0, 1.709067782333374E9, 0.0, 2024-02-27 13:03:02.333
99.0, -52.500715577974916, -9600.13432130823, -25.651973796077073, 1927.701512960717, -0.06400000303983688, 0.01600000075995922, 1.0240000486373901, 0.0, 0.0, 0.0, 0.0, 0.0, 1.709067782336529E9, 0.0, 2024-02-27 13:03:02.336
99.0, 52.119245782494545, -9455.501170321833, 107.84749502222985, 2104.449184866622, -0.06400000303983688, 0.01600000075995922, 1.0240000486373901, 0.0, 0.0, 0.0, 0.0, 0.0, 1.709067782336529E9, 0.0, 2024-02-27 13:03:02.336
1.0, 81.79535193089396, -9450.269050283823, 154.05021907482296, 2152.8285306934267, -0.06400000303983688, 0.01600000075995922, 1.0240000486373901, 0.0, 0.0, 0.0, 0.0, 0.0, 1.709067782339445E9, 0.0, 2024-02-27 13:03:02.339
1.0, -69.30034617893398, -9671.472912963014, 5.434074635617435, 1988.4561877408996, -0.06400000303983688, 0.01600000075995922, 1.0240000486373901, 0.0, 0.0, 0.0, 0.0, 0.0, 1.709067782339445E9, 0.0, 2024-02-27 13:03:02.339
2.0, -8.377375900745392, -9523.746864713263, 38.70796454139054, 2006.314210029319, -0.0800000037997961, 0.01600000075995922, 1.0240000486373901, 0.0, 0.0, 0.0, 0.0, 0.0, 1.709067782342483E9, 0.0, 2024-02-27 13:03:02.342
2.0, 105.84290864598006, -9362.688073121477, 186.95759878493845, 2161.1647676946595, -0.0800000037997961, 0.01600000075995922, 1.0240000486373901, 0.0, 0.0, 0.0, 0.0, 0.0, 1.709067782342483E9, 0.0, 2024-02-27 13:03:02.342
3.0, 0.7928587906062603, -9577.249873479363, 111.3106423811987, 2084.1003892077133, -0.0800000037997961, 0.01600000075995922, 1.0240000486373901, 0.0, 0.0, 0.0, 0.0, 0.0, 1.709067782391377E9, 0.0, 2024-02-27 13:03:02.391
3.0, -75.24304720852524, -9608.264863811899, -20.97709885146469, 1909.9145487714559, -0.0800000037997961, 0.01600000075995922, 1.0240000486373901, 0.0, 0.0, 0.0, 0.0, 0.0, 1.709067782391377E9, 0.0, 2024-02-27 13:03:02.391
4.0, 92.52886480372399, -9373.14109349763, 182.32012283988297, 2140.198888543062, -0.0800000037997961, 0.01600000075995922, 1.0240000486373901, 0.0, 0.0, 0.0, 0.0, 0.0, 1.709067782451421E9, 0.0, 2024-02-27 13:03:02.451
4.0, 57.751535115763545, -9491.164856299292, 161.34302398841828, 2125.4412433179095, -0.0800000037997961, 0.01600000075995922, 1.0240000486373901, 0.0, 0.0, 0.0, 0.0, 0.0, 1.709067782451421E9, 0.0, 2024-02-27 13:03:02.451
5.0, -115.23005753476173, -9679.04247047333, -46.27004225179553, 1882.631978594698, -0.0800000037997961, 0.01600000075995922, 1.0240000486373901, 0.0, 0.0, 0.0, 0.0, 0.0, 1.709067782497702E9, 0.0, 2024-02-27 13:03:02.497
5.0, 44.70302417036146, -9439.68513340922, 124.08988052979112, 2087.238165270537, -0.0800000037997961, 0.01600000075995922, 1.0240000486373901, 0.0, 0.0, 0.0, 0.0, 0.0, 1.709067782497702E9, 0.0, 2024-02-27 13:03:02.497
7.0, 115.57786823064089, -9298.855460677762, 157.28523253649473, 2122.0192348584533, -0.0800000037997961, 0.01600000075995922, 1.0240000486373901, 0.0, 0.0, 0.0, 0.0, 0.0, 1.709067782500892E9, 0.0, 2024-02-27 13:03:02.500
7.0, 210.37685230746865, -9169.94110920513, 279.1012538932264, 2252.710038810037, -0.0800000037997961, 0.01600000075995922, 1.0240000486373901, 0.0, 0.0, 0.0, 0.0, 0.0, 1.709067782500892E9, 0.0, 2024-02-27 13:03:02.500
8.0, 119.7964753806591, -9371.877007312607, 214.24390886165202, 2197.150085068308, -0.0800000037997961, 0.01600000075995922, 1.0240000486373901, 0.0, 0.0, 0.0, 0.0, 0.0, 1.709067782504307E9, 0.0, 2024-02-27 13:03:02.504
8.0, 30.087495143525302, -9414.014460113365, 67.32567900232971, 2019.0036905789748, -0.0800000037997961, 0.01600000075995922, 1.0240000486373901, 0.0, 0.0, 0.0, 0.0, 0.0, 1.709067782504307E9, 0.0, 2024-02-27 13:03:02.504
9.0, 205.18213126901537, -9173.651089961175, 274.6058941464871, 2259.6064143283293, -0.0800000037997961, 0.01600000075995922, 1.0240000486373901, 0.0, 0.0, 0.0, 0.0, 0.0, 1.709067782507092E9, 0.0, 2024-02-27 13:03:02.507
9.0, 168.79290470015258, -9291.401840066072, 255.117275477387, 2246.557903382927, -0.0800000037997961, 0.01600000075995922, 1.0240000486373901, 0.0, 0.0, 0.0, 0.0, 0.0, 1.709067782507092E9, 0.0, 2024-02-27 13:03:02.507
10.0, 2.3224778724834323, -9477.32722646324, 44.35147357452661, 2006.1870534308255, -0.0800000037997961, 0.01600000075995922, 1.0240000486373901, 0.0, 0.0, 0.0, 0.0, 0.0, 1.709067782512398E9, 0.0, 2024-02-27 13:03:02.512
10.0, 165.2998381415382, -9722.423440009356, 220.18660989124328, 2214.985667956993, -0.0800000037997961, 0.01600000075995922, 1.0240000486373901, 0.0, 0.0, 0.0, 0.0, 0.0, 1.709067782512398E9, 0.0, 2024-02-27 13:03:02.512
13.0, 71.49566745292395, -9913.083539750427, 161.55245838593692, 2157.080796943046, -0.0800000037997961, 0.01600000075995922, 1.0240000486373901, 0.0, 0.0, 0.0, 0.0, 0.0, 1.709067782663571E9, 0.0, 2024-02-27 13:03:02.663
13.0, -7.599476709961891, -9945.328957168385, 30.420346239581704, 1988.560904939659, -0.0800000037997961, 0.01600000075995922, 1.0240000486373901, 0.0, 0.0, 0.0, 0.0, 0.0, 1.709067782663571E9, 0.0, 2024-02-27 13:03:02.663
19.0, 169.06217749696225, -10190.342892915476, 237.86885688174516, 2219.1182574080303, -0.0800000037997961, 0.01600000075995922, 1.0240000486373901, 0.0, 0.0, 0.0, 0.0, 0.0, 1.709067782666377E9, 0.0, 2024-02-27 13:03:02.666
19.0, 133.6939436160028, -10305.004485656973, 218.4737357115373, 2209.7423282191157, -0.0800000037997961, 0.01600000075995922, 1.0240000486373901, 0.0, 0.0, 0.0, 0.0, 0.0, 1.709067782666377E9, 0.0, 2024-02-27 13:03:02.666
23.0, 42.447864497080445, -10503.626832403708, 148.20101554412395, 2145.6703621782362, -0.0800000037997961, 0.01600000075995922, 1.0240000486373901, 0.0, 0.0, 0.0, 0.0, 0.0, 1.709067782669537E9, 0.0, 2024-02-27 13:03:02.669
23.0, -42.37306649796665, -10543.711080128793, 6.062377828173339, 1970.904837248847, -0.0800000037997961, 0.01600000075995922, 1.0240000486373901, 0.0, 0.0, 0.0, 0.0, 0.0, 1.709067782669537E9, 0.0, 2024-02-27 13:03:02.669
24.0, 128.15141188167036, -10307.319483729545, 210.61246600467712, 2200.875025424175, -0.0800000037997961, 0.01600000075995922, 1.0240000486373901, 0.0, 0.0, 0.0, 0.0, 0.0, 1.709067782672891E9, 0.0, 2024-02-27 13:03:02.672
24.0, 91.49665241595358, -10416.752696332987, 193.18079231120646, 2192.6322859218344, -0.0800000037997961, 0.01600000075995922, 1.0240000486373901, 0.0, 0.0, 0.0, 0.0, 0.0, 1.709067782672891E9, 0.0, 2024-02-27 13:03:02.672
25.0, -79.14376286230981, -10603.261507123243, -12.304270854219794, 1952.788761863485, -0.0800000037997961, 0.01600000075995922, 1.0240000486373901, 0.0, 0.0, 0.0, 0.0, 0.0, 1.709067782707699E9, 0.0, 2024-02-27 13:03:02.707
25.0, 90.28118493035436, -10845.751010400243, 163.36256996449083, 2153.4680535858497, -0.0800000037997961, 0.01600000075995922, 1.0240000486373901, 0.0, 0.0, 0.0, 0.0, 0.0, 1.709067782707699E9, 0.0, 2024-02-27 13:03:02.707
26.0, 121.07926106546074, -10848.66065256577, 206.18442445714027, 2201.4360104175285, -0.0800000037997961, 0.01600000075995922, 1.0240000486373901, 0.0, 0.0, 0.0, 0.0, 0.0, 1.709067782711213E9, 0.0, 2024-02-27 13:03:02.711
26.0, -35.270996482111514, -11082.202445198782, 49.755629010498524, 2034.1054066000506, -0.0800000037997961, 0.01600000075995922, 1.0240000486373901, 0.0, 0.0, 0.0, 0.0, 0.0, 1.709067782711213E9, 0.0, 2024-02-27 13:03:02.711
27.0, 12.154674855992198, -10958.576312263496, 62.34787216130644, 2042.9876689948142, -0.0800000037997961, 0.01600000075995922, 1.0240000486373901, 0.0, 0.0, 0.0, 0.0, 0.0, 1.709067782715614E9, 0.0, 2024-02-27 13:03:02.715
27.0, 115.25997673440725, -10828.921460599639, 185.85806819796562, 2187.198211286217, -0.0800000037997961, 0.01600000075995922, 1.0240000486373901, 0.0, 0.0, 0.0, 0.0, 0.0, 1.709067782715614E9, 0.0, 2024-02-27 13:03:02.715
40.0, -47.79592143371701, -11010.373926649801, -13.848849535919726, 1963.5073151364923, -0.0800000037997961, 0.01600000075995922, 1.0240000486373901, 0.0, 0.0, 0.0, 0.0, 0.0, 1.709067782718892E9, 0.0, 2024-02-27 13:03:02.718
40.0, 104.53394366148859, -10781.71644335892, 145.31755267828703, 2145.397349481471, -0.0800000037997961, 0.01600000075995922, 1.0240000486373901, 0.0, 0.0, 0.0, 0.0, 0.0, 1.709067782718892E9, 0.0, 2024-02-27 13:03:02.718
41.0, 138.5483337584883, -10772.430271768942, 194.23170419875532, 2200.863805724308, -0.0800000037997961, 0.0, 1.0240000486373901, 0.0, 0.0, 0.0, 0.0, 0.0, 1.709067782723266E9, 0.0, 2024-02-27 13:03:02.723
41.0, -15.890834911726415, -11005.777589604259, 43.625932983122766, 2029.5576882539317, -0.0800000037997961, 0.0, 1.0240000486373901, 0.0, 0.0, 0.0, 0.0, 0.0, 1.709067782723266E9, 0.0, 2024-02-27 13:03:02.723
42.0, 34.34724119305611, -10879.959875294939, 58.39105800818652, 2043.8328863848, -0.0800000037997961, 0.0, 1.0240000486373901, 0.0, 0.0, 0.0, 0.0, 0.0, 1.709067782726682E9, 0.0, 2024-02-27 13:03:02.726
42.0, 145.46714867651463, -10740.850556543097, 191.24726403411478, 2190.141512551345, -0.0800000037997961, 0.0, 1.0240000486373901, 0.0, 0.0, 0.0, 0.0, 0.0, 1.709067782726682E9, 0.0, 2024-02-27 13:03:02.726
43.0, 46.62907264754176, -10943.20532344561, 122.81457464490086, 2127.655264091678, -0.0800000037997961, 0.0, 1.0240000486373901, 0.0, 0.0, 0.0, 0.0, 0.0, 1.709067782730001E9, 0.0, 2024-02-27 13:03:02.730
43.0, -43.629672883078456, -10990.653434183449, -25.41636009886861, 1954.0827672481537, -0.0800000037997961, 0.0, 1.0240000486373901, 0.0, 0.0, 0.0, 0.0, 0.0, 1.709067782730001E9, 0.0, 2024-02-27 13:03:02.730
44.0, 127.55676778871566, -10753.270764295943, 174.06990353763103, 2185.242243609391, -0.0800000037997961, 0.0, 1.0240000486373901, 0.0, 0.0, 0.0, 0.0, 0.0, 1.709067782733306E9, 0.0, 2024-02-27 13:03:02.733
44.0, 101.25031150039285, -10861.395011914894, 164.15916865505278, 2174.523690336384, -0.0800000037997961, 0.0, 1.0240000486373901, 0.0, 0.0, 0.0, 0.0, 0.0, 1.709067782733306E9, 0.0, 2024-02-27 13:03:02.733
45.0, -64.49083483591676, -11049.253926589154, -43.99992297869176, 1934.6876460779458, -0.0800000037997961, 0.0, 1.0240000486373901, 0.0, 0.0, 0.0, 0.0, 0.0, 1.709067782872573E9, 0.0, 2024-02-27 13:03:02.872
45.0, 101.56072319671512, -11286.60106742708, 136.16601748671383, 2145.371170181781, -0.0800000037997961, 0.0, 1.0240000486373901, 0.0, 0.0, 0.0, 0.0, 0.0, 1.709067782872573E9, 0.0, 2024-02-27 13:03:02.872
46.0, 142.363031713292, -11256.906261778902, 195.49205048382282, 2208.242628336884, -0.0800000037997961, 0.0, 1.0240000486373901, 0.0, 0.0, 0.0, 0.0, 0.0, 1.709067782875697E9, 0.0, 2024-02-27 13:03:02.875
46.0, -13.643155038356781, -11493.701767373364, 48.469103425741196, 2047.079119546339, -0.0800000037997961, 0.0, 1.0240000486373901, 0.0, 0.0, 0.0, 0.0, 0.0, 1.709067782875697E9, 0.0, 2024-02-27 13:03:02.875
47.0, 42.810634792782366, -11352.419566747267, 66.72729500941932, 2061.223421178758, -0.0800000037997961, 0.0, 1.0240000486373901, 0.0, 0.0, 0.0, 0.0, 0.0, 1.709067782948057E9, 0.0, 2024-02-27 13:03:02.948
47.0, 148.21223524399102, -11218.377812435385, 201.11686001718044, 2206.664390555583, -0.0800000037997961, 0.0, 1.0240000486373901, 0.0, 0.0, 0.0, 0.0, 0.0, 1.709067782948057E9, 0.0, 2024-02-27 13:03:02.948
48.0, 55.03262784797698, -11417.0525177815, 133.30499402061105, 2141.0216665333137, -0.0800000037997961, 0.0, 1.0240000486373901, 0.0, 0.0, 0.0, 0.0, 0.0, 1.709067782950982E9, 0.0, 2024-02-27 13:03:02.950
48.0, -30.52132353838533, -11463.689070228953, -16.54531740397215, 1964.0458607301116, -0.0800000037997961, 0.0, 1.0240000486373901, 0.0, 0.0, 0.0, 0.0, 0.0, 1.709067782950982E9, 0.0, 2024-02-27 13:03:02.950
49.0, 140.12283163983375, -11224.043760868255, 191.02287003677338, 2195.856079683639, -0.0800000037997961, 0.0, 1.0240000486373901, 0.0, 0.0, 0.0, 0.0, 0.0, 1.709067782953842E9, 0.0, 2024-02-27 13:03:02.953
49.0, 109.95305869728327, -11333.166561775375, 171.6352286664769, 2183.746283627115, -0.0800000037997961, 0.0, 1.0240000486373901, 0.0, 0.0, 0.0, 0.0, 0.0, 1.709067782953842E9, 0.0, 2024-02-27 13:03:02.953
50.0, -54.894251549616456, -11507.251424912829, -15.917014211416245, 1955.537588330917, -0.0800000037997961, 0.0, 1.0240000486373901, 0.0, 0.0, 0.0, 0.0, 0.0, 1.709067782957026E9, 0.0, 2024-02-27 13:03:02.957
50.0, 114.13426684774458, -11743.835626159795, 159.4805538104847, 2156.4001351511106, -0.0800000037997961, 0.0, 1.0240000486373901, 0.0, 0.0, 0.0, 0.0, 0.0, 1.709067782957026E9, 0.0, 2024-02-27 13:03:02.957
51.0, 156.48863384593278, -11731.520135605708, 208.5480412291363, 2214.204028866254, -0.0800000037997961, 0.0, 1.0240000486373901, 0.0, 0.0, 0.0, 0.0, 0.0, 1.709067783051837E9, 0.0, 2024-02-27 13:03:03.051
51.0, -8.998199293389916, -11967.754656206816, 48.35316652711481, 2045.523321164772, -0.0800000037997961, 0.0, 1.0240000486373901, 0.0, 0.0, 0.0, 0.0, 0.0, 1.709067783051837E9, 0.0, 2024-02-27 13:03:03.051
61.0, 14.121862232685089, -11957.941158723086, 87.98114645760506, 2091.8195427162573, -0.0800000037997961, 0.0, 1.0240000486373901, 0.0, 0.0, 0.0, 0.0, 0.0, 1.709067783054691E9, 0.0, 2024-02-27 13:03:03.054
61.0, -133.14791822247207, -12187.963705497794, -55.776867939159274, 1926.6393813733011, -0.0800000037997961, 0.0, 1.0240000486373901, 0.0, 0.0, 0.0, 0.0, 0.0, 1.709067783054691E9, 0.0, 2024-02-27 13:03:03.054
62.0, -87.03121186885983, -12069.891323996708, -48.27462862804532, 1932.9785117981955, -0.06400000303983688, 0.0, 1.0240000486373901, 0.0, 0.0, 0.0, 0.0, 0.0, 1.70906778305782E9, 0.0, 2024-02-27 13:03:03.057
62.0, 24.829195805825293, -11926.817711291835, 83.27635231334716, 2085.502851691097, -0.06400000303983688, 0.0, 1.0240000486373901, 0.0, 0.0, 0.0, 0.0, 0.0, 1.70906778305782E9, 0.0, 2024-02-27 13:03:03.057
68.0, -67.81560589652508, -12122.04796877876, 23.7895036181435, 2024.7219976112247, -0.06400000303983688, 0.0, 1.0240000486373901, 0.0, 0.0, 0.0, 0.0, 0.0, 1.709067783217983E9, 0.0, 2024-02-27 13:03:03.217
68.0, -156.4026161469519, -12169.638195714913, -124.00760273076594, 1846.9234138177708, -0.06400000303983688, 0.0, 1.0240000486373901, 0.0, 0.0, 0.0, 0.0, 0.0, 1.709067783217983E9, 0.0, 2024-02-27 13:03:03.217
69.0, 12.805417448282242, -11931.94137423113, 77.31121188402176, 2077.181574289687, -0.06400000303983688, 0.0, 1.0240000486373901, 0.0, 0.0, 0.0, 0.0, 0.0, 1.709067783220894E9, 0.0, 2024-02-27 13:03:03.220
69.0, -10.299684477970004, -12031.478811551817, 69.37888407800347, 2074.021358827129, -0.06400000303983688, 0.0, 1.0240000486373901, 0.0, 0.0, 0.0, 0.0, 0.0, 1.709067783220894E9, 0.0, 2024-02-27 13:03:03.220
70.0, -176.3849016102031, -12212.14963851124, -130.07372045889497, 1839.8849221011624, -0.06400000303983688, 0.0, 1.0240000486373901, 0.0, 0.0, 0.0, 0.0, 0.0, 1.70906778322374E9, 0.0, 2024-02-27 13:03:03.223
70.0, -16.979145798832178, -11978.342312981375, 31.299222729168832, 2029.6437059529126, -0.06400000303983688, 0.0, 1.0240000486373901, 0.0, 0.0, 0.0, 0.0, 0.0, 1.70906778322374E9, 0.0, 2024-02-27 13:03:03.223
71.0, 16.44060020521283, -11960.682505390607, 81.7055943319574, 2083.8311164109036, -0.06400000303983688, 0.01600000075995922, 1.0240000486373901, 0.0, 0.0, 0.0, 0.0, 0.0, 1.709067783226724E9, 0.0, 2024-02-27 13:03:03.226
71.0, -133.3199536204338, -12191.632547354326, -60.09271248802543, 1925.749285183847, -0.06400000303983688, 0.01600000075995922, 1.0240000486373901, 0.0, 0.0, 0.0, 0.0, 0.0, 1.709067783226724E9, 0.0, 2024-02-27 13:03:03.226
79.0, 36.19101187121123, -11952.877334183082, 138.03596746455878, 2154.623682672158, -0.06400000303983688, 0.01600000075995922, 1.0240000486373901, 0.0, 0.0, 0.0, 0.0, 0.0, 1.709067783263182E9, 0.0, 2024-02-27 13:03:03.263
79.0, 8.900961894541979, -12052.437210903503, 127.07806059438735, 2149.6832748306915, -0.06400000303983688, 0.01600000075995922, 1.0240000486373901, 0.0, 0.0, 0.0, 0.0, 0.0, 1.709067783263182E9, 0.0, 2024-02-27 13:03:03.263
80.0, -154.1511963736266, -12239.529446086846, -61.92526346631348, 1922.8583425180987, -0.06400000303983688, 0.01600000075995922, 1.0240000486373901, 0.0, 0.0, 0.0, 0.0, 0.0, 1.709067783266155E9, 0.0, 2024-02-27 13:03:03.266
80.0, 4.304624848999083, -11994.883890485391, 102.67521338351071, 2110.893032490276, -0.06400000303983688, 0.01600000075995922, 1.0240000486373901, 0.0, 0.0, 0.0, 0.0, 0.0, 1.709067783266155E9, 0.0, 2024-02-27 13:03:03.266
81.0, 33.37486720457673, -11977.740189088508, 143.89265079516917, 2164.1940866587684, -0.06400000303983688, 0.01600000075995922, 1.0240000486373901, 0.0, 0.0, 0.0, 0.0, 0.0, 1.709067783278302E9, 0.0, 2024-02-27 13:03:03.278
81.0, -109.67256620060652, -12202.078087930568, 4.873089642263949, 2011.4229133687913, -0.06400000303983688, 0.01600000075995922, 1.0240000486373901, 0.0, 0.0, 0.0, 0.0, 0.0, 1.709067783278302E9, 0.0, 2024-02-27 13:03:03.278
95.0, -272.7322042686865, -12387.229315036908, -184.47056531440467, 1787.7058379193768, -0.06400000303983688, 0.01600000075995922, 1.0240000486373901, 0.0, 0.0, 0.0, 0.0, 0.0, 1.709067783281397E9, 0.0, 2024-02-27 13:03:03.281
95.0, -114.73639074061066, -12146.966922183521, -22.218745636753738, 1975.6732096923515, -0.06400000303983688, 0.01600000075995922, 1.0240000486373901, 0.0, 0.0, 0.0, 0.0, 0.0, 1.709067783281397E9, 0.0, 2024-02-27 13:03:03.281
96.0, -83.519445810467, -12133.334986845031, 29.02910345606506, 2026.7378036873415, -0.06400000303983688, 0.01600000075995922, 1.0240000486373901, 0.0, 0.0, 0.0, 0.0, 0.0, 1.709067783284451E9, 0.0, 2024-02-27 13:03:03.284
96.0, -227.67762950249016, -12362.68061172776, -110.69355888850987, 1873.2560494057834, -0.06400000303983688, 0.01600000075995922, 1.0240000486373901, 0.0, 0.0, 0.0, 0.0, 0.0, 1.709067783284451E9, 0.0, 2024-02-27 13:03:03.284
97.0, -188.89112706203014, -12243.284305642359, -109.08166200760752, 1875.167138283141, -0.06400000303983688, 0.01600000075995922, 1.0240000486373901, 0.0, 0.0, 0.0, 0.0, 0.0, 1.709067783287955E9, 0.0, 2024-02-27 13:03:03.287
97.0, -71.3685108544305, -12097.297310872003, 28.041769867762923, 2030.1224131472409, -0.06400000303983688, 0.01600000075995922, 1.0240000486373901, 0.0, 0.0, 0.0, 0.0, 0.0, 1.709067783287955E9, 0.0, 2024-02-27 13:03:03.287
98.0, -160.98025369271636, -12290.96429017745, -32.2753366176039, 1968.6982962749898, -0.06400000303983688, 0.01600000075995922, 1.0240000486373901, 0.0, 0.0, 0.0, 0.0, 0.0, 1.709067783336342E9, 0.0, 2024-02-27 13:03:03.336
98.0, -254.53759098425508, -12340.158934194595, -175.0796765256673, 1792.141359266825, -0.06400000303983688, 0.01600000075995922, 1.0240000486373901, 0.0, 0.0, 0.0, 0.0, 0.0, 1.709067783336342E9, 0.0, 2024-02-27 13:03:03.336
100.0, -407.70145376957953, -12527.539141674526, -367.1422387501225, 1572.7289086664096, -0.06400000303983688, 0.01600000075995922, 1.0240000486373901, 0.0, 0.0, 0.0, 0.0, 0.0, 1.709067783381824E9, 0.0, 2024-02-27 13:03:03.381
100.0, -266.1911192461848, -12292.374232460745, -215.4331970475614, 1745.9760342137888, -0.06400000303983688, 0.01600000075995922, 1.0240000486373901, 0.0, 0.0, 0.0, 0.0, 0.0, 1.709067783381824E9, 0.0, 2024-02-27 13:03:03.381
0.0, 83.92522495565936, 108.70580206206068, 90.44761047838256, 95.24029227159917, -0.06400000303983688, 0.01600000075995922, 1.0240000486373901, 0.0, 0.0, 0.0, 0.0, 0.0, 1.709067783385844E9, 0.0, 2024-02-27 13:03:03.385
1.0, -55.69272019015625, -108.58238536352292, -41.95606765290722, -53.5815466651693, -0.06400000303983688, 0.01600000075995922, 1.0240000486373901, 0.0, 0.0, 0.0, 0.0, 0.0, 1.709067783428523E9, 0.0, 2024-02-27 13:03:03.428
1.0, -33.2196613564156, -6.572874172125012, -47.64445548551157, -62.972435453906655, -0.06400000303983688, 0.01600000075995922, 1.0240000486373901, 0.0, 0.0, 0.0, 0.0, 0.0, 1.709067783428523E9, 0.0, 2024-02-27 13:03:03.428
2.0, 92.1006462587975, 151.6061944537796, 95.3954981197603, 95.06825687363744, -0.0800000037997961, 0.01600000075995922, 1.0240000486373901, 0.0, 0.0, 0.0, 0.0, 0.0, 1.709067783431252E9, 0.0, 2024-02-27 13:03:03.431
2.0, 3.0798076135106385, -42.19916115002707, 35.34392453124747, 40.66767211817205, -0.0800000037997961, 0.01600000075995922, 1.0240000486373901, 0.0, 0.0, 0.0, 0.0, 0.0, 1.709067783431252E9, 0.0, 2024-02-27 13:03:03.431
3.0, -83.43529806146398, -91.82015376212075, -115.84527107747272, -138.73906865622848, -0.0800000037997961, 0.01600000075995922, 1.0240000486373901, 0.0, 0.0, 0.0, 0.0, 0.0, 1.70906778343443E9, 0.0, 2024-02-27 13:03:03.434
3.0, 87.27243541600183, 143.88330104527995, 89.6884107873775, 93.69197368994355, -0.0800000037997961, 0.01600000075995922, 1.0240000486373901, 0.0, 0.0, 0.0, 0.0, 0.0, 1.70906778343443E9, 0.0, 2024-02-27 13:03:03.434
4.0, 52.371689029503614, 45.61368980957195, 78.33407452190295, 84.43198139965534, -0.0800000037997961, 0.01600000075995922, 1.0240000486373901, 0.0, 0.0, 0.0, 0.0, 0.0, 1.709067783437536E9, 0.0, 2024-02-27 13:03:03.437
4.0, -105.63160429848358, -138.69605980673805, -116.60447076847777, -140.97552882973105, -0.0800000037997961, 0.01600000075995922, 1.0240000486373901, 0.0, 0.0, 0.0, 0.0, 0.0, 1.709067783437536E9, 0.0, 2024-02-27 13:03:03.437
7.0, 7.6686648591421545, 15.814166962634772, 20.27960750972852, 13.770311636850238, -0.0800000037997961, 0.01600000075995922, 1.0240000486373901, 0.0, 0.0, 0.0, 0.0, 0.0, 1.70906778344199E9, 0.0, 2024-02-27 13:03:03.441
7.0, -77.52999603142962, -174.8047938789241, -42.90226234169677, -41.59142740722746, -0.0800000037997961, 0.01600000075995922, 1.0240000486373901, 0.0, 0.0, 0.0, 0.0, 0.0, 1.70906778344199E9, 0.0, 2024-02-27 13:03:03.441
11.0, -222.45111931441352, -402.2542894841172, -181.08034600457177, -193.30420900974423, -0.0800000037997961, 0.01600000075995922, 1.0240000486373901, 0.0, 0.0, 0.0, 0.0, 0.0, 1.709067783444868E9, 0.0, 2024-02-27 13:03:03.444
11.0, -186.9594687349163, -289.8889953154139, -182.4005306889303, -199.4301651371643, -0.0800000037997961, 0.01600000075995922, 1.0240000486373901, 0.0, 0.0, 0.0, 0.0, 0.0, 1.709067783444868E9, 0.0, 2024-02-27 13:03:03.444
12.0, -67.68657934805378, -138.81199670536444, -44.16634852671996, -46.6889110468328, -0.0800000037997961, 0.01600000075995922, 1.0240000486373901, 0.0, 0.0, 0.0, 0.0, 0.0, 1.709067783447959E9, 0.0, 2024-02-27 13:03:03.447
12.0, -161.5730278356932, -344.98520146263763, -115.86771047720686, -111.82300867512822, -0.0800000037997961, 0.01600000075995922, 1.0240000486373901, 0.0, 0.0, 0.0, 0.0, 0.0, 1.709067783447959E9, 0.0, 2024-02-27 13:03:03.447
16.0, -303.3937740554102, -564.8875789572485, -244.18367795692757, -252.61902230698615, -0.0800000037997961, 0.01600000075995922, 1.0240000486373901, 0.0, 0.0, 0.0, 0.0, 0.0, 1.709067783451122E9, 0.0, 2024-02-27 13:03:03.451
16.0, -277.35285066394135, -464.25435094954446, -256.15135781513527, -267.9526121253148, -0.0800000037997961, 0.01600000075995922, 1.0240000486373901, 0.0, 0.0, 0.0, 0.0, 0.0, 1.709067783451122E9, 0.0, 2024-02-27 13:03:03.451
17.0, -152.65336644137278, -306.9765982129611, -111.71268162643537, -115.24501713458449, -0.0800000037997961, 0.01600000075995922, 1.0240000486373901, 0.0, 0.0, 0.0, 0.0, 0.0, 1.709067783501923E9, 0.0, 2024-02-27 13:03:03.501
17.0, -247.78894151421264, -504.6377906710841, -172.1345053105615, -169.98593278601766, -0.0800000037997961, 0.01600000075995922, 1.0240000486373901, 0.0, 0.0, 0.0, 0.0, 0.0, 1.709067783501923E9, 0.0, 2024-02-27 13:03:03.501
18.0, -337.15759085537866, -557.6134735434316, -318.4992299764417, -348.6746127689257, -0.0800000037997961, 0.01600000075995922, 1.0240000486373901, 0.0, 0.0, 0.0, 0.0, 0.0, 1.709067783504666E9, 0.0, 2024-02-27 13:03:03.504
18.0, -163.07272771792486, -319.45290446514264, -118.97930724034086, -118.28181589860469, -0.0800000037997961, 0.01600000075995922, 1.0240000486373901, 0.0, 0.0, 0.0, 0.0, 0.0, 1.709067783504666E9, 0.0, 2024-02-27 13:03:03.504
19.0, -194.95163494022563, -420.97996856225654, -132.24847228312865, -128.21873008087277, -0.0800000037997961, 0.01600000075995922, 1.0240000486373901, 0.0, 0.0, 0.0, 0.0, 0.0, 1.709067783507809E9, 0.0, 2024-02-27 13:03:03.507
19.0, -357.83175781043246, -612.0252779987641, -329.1766443499364, -355.2119578914717, -0.0800000037997961, 0.01600000075995922, 1.0240000486373901, 0.0, 0.0, 0.0, 0.0, 0.0, 1.709067783507809E9, 0.0, 2024-02-27 13:03:03.507
20.0, -204.29016512958333, -378.21795246889815, -173.4322505951859, -168.91258149873465, -0.0800000037997961, 0.01600000075995922, 1.0240000486373901, 0.0, 0.0, 0.0, 0.0, 0.0, 1.709067783608165E9, 0.0, 2024-02-27 13:03:03.608
20.0, -166.29652147972956, -363.02647884888574, -119.9629009286873, -117.27204291056842, -0.0800000037997961, 0.01600000075995922, 1.0240000486373901, 0.0, 0.0, 0.0, 0.0, 0.0, 1.709067783608165E9, 0.0, 2024-02-27 13:03:03.608
21.0, -311.40837966045365, -584.177982928697, -253.39131164783612, -264.77743706293404, -0.0800000037997961, 0.01600000075995922, 1.0240000486373901, 0.0, 0.0, 0.0, 0.0, 0.0, 1.709067783611378E9, 0.0, 2024-02-27 13:03:03.611
21.0, -273.1379834138788, -473.5405225395225, -256.1027391157113, -271.63641358166933, -0.0800000037997961, 0.01600000075995922, 1.0240000486373901, 0.0, 0.0, 0.0, 0.0, 0.0, 1.709067783611378E9, 0.0, 2024-02-27 13:03:03.611
22.0, -153.92867232626304, -318.92931847134605, -114.2558135963045, -115.81722182780504, -0.0800000037997961, 0.01600000075995922, 1.0240000486373901, 0.0, 0.0, 0.0, 0.0, 0.0, 1.709067783614712E9, 0.0, 2024-02-27 13:03:03.614
22.0, -243.7274101623334, -512.2110880813561, -177.26938794972375, -172.0092186620459, -0.0800000037997961, 0.01600000075995922, 1.0240000486373901, 0.0, 0.0, 0.0, 0.0, 0.0, 1.709067783614712E9, 0.0, 2024-02-27 13:03:03.614
23.0, -339.41649042861536, -568.8032542108558, -321.11715994542465, -349.8339817551896, -0.0800000037997961, 0.01600000075995922, 1.0240000486373901, 0.0, 0.0, 0.0, 0.0, 0.0, 1.709067783617982E9, 0.0, 2024-02-27 13:03:03.617
23.0, -164.81926099723205, -328.0621541631408, -129.783878212329, -116.84195441566408, -0.0800000037997961, 0.01600000075995922, 1.0240000486373901, 0.0, 0.0, 0.0, 0.0, 0.0, 1.709067783617982E9, 0.0, 2024-02-27 13:03:03.617
24.0, -190.20196199649945, -420.94256956269965, -133.3031240706332, -124.86029992066324, -0.0800000037997961, 0.01600000075995922, 1.0240000486373901, 0.0, 0.0, 0.0, 0.0, 0.0, 1.709067783651228E9, 0.0, 2024-02-27 13:03:03.651
24.0, -354.91089594503865, -613.1883868849836, -333.9263172936626, -347.81069587916136, -0.0800000037997961, 0.01600000075995922, 1.0240000486373901, 0.0, 0.0, 0.0, 0.0, 0.0, 1.709067783651228E9, 0.0, 2024-02-27 13:03:03.651
25.0, -202.49127325089648, -379.5269174533896, -173.53322789398953, -173.31444374658167, -0.0800000037997961, 0.01600000075995922, 1.0240000486373901, 0.0, 0.0, 0.0, 0.0, 0.0, 1.709067783653941E9, 0.0, 2024-02-27 13:03:03.653
25.0, -167.56060766475275, -357.65598251251504, -122.11708330316469, -113.44986515585333, -0.0800000037997961, 0.01600000075995922, 1.0240000486373901, 0.0, 0.0, 0.0, 0.0, 0.0, 1.709067783653941E9, 0.0, 2024-02-27 13:03:03.653
26.0, -308.7642703917809, -588.411549678538, -261.34981875354424, -263.3749745795503, -0.0800000037997961, 0.01600000075995922, 1.0240000486373901, 0.0, 0.0, 0.0, 0.0, 0.0, 1.709067783725442E9, 0.0, 2024-02-27 13:03:03.725
26.0, -274.12905690213665, -475.51892961608246, -260.6242781621404, -273.2071715630591, -0.0800000037997961, 0.01600000075995922, 1.0240000486373901, 0.0, 0.0, 0.0, 0.0, 0.0, 1.709067783725442E9, 0.0, 2024-02-27 13:03:03.725
34.0, -296.9050476322882, -572.75632846402, -269.783293153625, -283.7200303385034, -0.0800000037997961, 0.01600000075995922, 1.0240000486373901, 0.0, 0.0, 0.0, 0.0, 0.0, 1.709067783773196E9, 0.0, 2024-02-27 13:03:03.773
34.0, -465.0472097401507, -766.7935578650795, -465.7690104315989, -506.67042629700154, -0.0800000037997961, 0.01600000075995922, 1.0240000486373901, 0.0, 0.0, 0.0, 0.0, 0.0, 1.709067783773196E9, 0.0, 2024-02-27 13:03:03.773
35.0, -314.18712532753125, -539.1159283625893, -314.26566322660074, -333.03061125427485, -0.0800000037997961, 0.01600000075995922, 1.0240000486373901, 0.0, 0.0, 0.0, 0.0, 0.0, 1.709067783776373E9, 0.0, 2024-02-27 13:03:03.776
35.0, -280.87209652224556, -517.5778445177712, -261.6527506499551, -278.60010729916394, -0.0800000037997961, 0.01600000075995922, 1.0240000486373901, 0.0, 0.0, 0.0, 0.0, 0.0, 1.709067783776373E9, 0.0, 2024-02-27 13:03:03.776
36.0, -418.34707899345085, -745.3901104186662, -399.26610941952094, -429.4190528122708, -0.0800000037997961, 0.01600000075995922, 1.0240000486373901, 0.0, 0.0, 0.0, 0.0, 0.0, 1.709067783779178E9, 0.0, 2024-02-27 13:03:03.779
36.0, -387.0141971646808, -639.4911032733507, -401.19589779665694, -440.45549758151174, -0.0800000037997961, 0.01600000075995922, 1.0240000486373901, 0.0, 0.0, 0.0, 0.0, 0.0, 1.709067783779178E9, 0.0, 2024-02-27 13:03:03.779
37.0, -271.46624813368544, -485.366086199414, -257.61365869781, -281.1768983686343, -0.0800000037997961, 0.01600000075995922, 1.0240000486373901, 0.0, 0.0, 0.0, 0.0, 0.0, 1.709067783781803E9, 0.0, 2024-02-27 13:03:03.781
37.0, -361.6427158652805, -674.6386830569245, -320.85910684848204, -336.03001101873815, -0.0800000037997961, 0.01600000075995922, 1.0240000486373901, 0.0, 0.0, 0.0, 0.0, 0.0, 1.709067783781803E9, 0.0, 2024-02-27 13:03:03.781
38.0, -446.7590989568271, -727.7789215273224, -465.7241316321306, -509.3594143651426, -0.0800000037997961, 0.01600000075995922, 1.0240000486373901, 0.0, 0.0, 0.0, 0.0, 0.0, 1.709067783816809E9, 0.0, 2024-02-27 13:03:03.816
38.0, -272.9622081159614, -489.18826395412907, -261.7649476486258, -286.2930815080181, -0.0800000037997961, 0.01600000075995922, 1.0240000486373901, 0.0, 0.0, 0.0, 0.0, 0.0, 1.709067783816809E9, 0.0, 2024-02-27 13:03:03.816
39.0, -302.21570556936786, -570.2655550935306, -268.1115578734316, -283.9219849361107, -0.0800000037997961, 0.01600000075995922, 1.0240000486373901, 0.0, 0.0, 0.0, 0.0, 0.0, 1.709067783819802E9, 0.0, 2024-02-27 13:03:03.819
39.0, -461.2474713851698, -760.9555740342475, -460.2002993975766, -507.8671942828223, -0.0800000037997961, 0.01600000075995922, 1.0240000486373901, 0.0, 0.0, 0.0, 0.0, 0.0, 1.709067783819802E9, 0.0, 2024-02-27 13:03:03.819
47.0, -343.15639038430527, -605.4430540767498, -316.04211570555344, -347.1001148875803, -0.0800000037997961, 0.01600000075995922, 1.0240000486373901, 0.0, 0.0, 0.0, 0.0, 0.0, 1.709067783822819E9, 0.0, 2024-02-27 13:03:03.822
47.0, -437.413088967558, -800.6097332644276, -379.9308266486041, -403.3444703212008, -0.0800000037997961, 0.01600000075995922, 1.0240000486373901, 0.0, 0.0, 0.0, 0.0, 0.0, 1.709067783822819E9, 0.0, 2024-02-27 13:03:03.822
50.0, -294.5638702600263, -570.5684869899414, -228.14698694692925, -236.49257369805127, -0.0800000037997961, 0.01600000075995922, 1.0240000486373901, 0.0, 0.0, 0.0, 0.0, 0.0, 1.709067783832647E9, 0.0, 2024-02-27 13:03:03.832
50.0, -254.8012539311312, -551.349141117651, -182.78948028432205, -182.2004460413009, -0.0800000037997961, 0.01600000075995922, 1.0240000486373901, 0.0, 0.0, 0.0, 0.0, 0.0, 1.709067783832647E9, 0.0, 2024-02-27 13:03:03.832
51.0, -403.6118731680326, -786.9441388263367, -322.14937233319506, -327.903208415024, -0.0800000037997961, 0.01600000075995922, 1.0240000486373901, 0.0, 0.0, 0.0, 0.0, 0.0, 1.709067783835647E9, 0.0, 2024-02-27 13:03:03.835
51.0, -368.47925298428163, -687.8554895003326, -330.134058738593, -343.0049244360998, -0.0800000037997961, 0.01600000075995922, 1.0240000486373901, 0.0, 0.0, 0.0, 0.0, 0.0, 1.709067783835647E9, 0.0, 2024-02-27 13:03:03.835
52.0, -249.04554789932445, -536.1090487982146, -185.84123864816502, -184.6463406123221, -0.06400000303983688, 0.01600000075995922, 1.0240000486373901, 0.0, 0.0, 0.0, 0.0, 0.0, 1.70906778383879E9, 0.0, 2024-02-27 13:03:03.838
52.0, -339.4763288279064, -729.3496795087121, -256.15883761504665, -242.28567872941494, -0.06400000303983688, 0.01600000075995922, 1.0240000486373901, 0.0, 0.0, 0.0, 0.0, 0.0, 1.70906778383879E9, 0.0, 2024-02-27 13:03:03.838
53.0, -433.0299262194894, -796.6117802117951, -405.4294645464979, -432.2127580791712, -0.06400000303983688, 0.01600000075995922, 1.0240000486373901, 0.0, 0.0, 0.0, 0.0, 0.0, 1.709067783842246E9, 0.0, 2024-02-27 13:03:03.842
53.0, -268.08537857374176, -563.2308032768779, -211.6016695429571, -207.695344039239, -0.06400000303983688, 0.01600000075995922, 1.0240000486373901, 0.0, 0.0, 0.0, 0.0, 0.0, 1.709067783842246E9, 0.0, 2024-02-27 13:03:03.842
55.0, -121.71317410795018, -342.46076899254695, -65.91012686910108, -32.847541310824454, -0.06400000303983688, 0.01600000075995922, 1.0240000486373901, 0.0, 0.0, 0.0, 0.0, 0.0, 1.709067783939566E9, 0.0, 2024-02-27 13:03:03.939
55.0, -84.62458624737337, -319.9166520596482, -17.56070024194196, 18.587302779778838, -0.06400000303983688, 0.01600000075995922, 1.0240000486373901, 0.0, 0.0, 0.0, 0.0, 0.0, 1.709067783939566E9, 0.0, 2024-02-27 13:03:03.939
56.0, -226.7931431629695, -546.524670174811, -144.11517484253272, -120.12184667680413, -0.06400000303983688, 0.01600000075995922, 1.0240000486373901, 0.0, 0.0, 0.0, 0.0, 0.0, 1.709067783942781E9, 0.0, 2024-02-27 13:03:03.942
56.0, -197.2591532128863, -449.50792542425916, -157.5788146830164, -145.41479007713497, -0.06400000303983688, 0.01600000075995922, 1.0240000486373901, 0.0, 0.0, 0.0, 0.0, 0.0, 1.709067783942781E9, 0.0, 2024-02-27 13:03:03.942
57.0, -79.6093804067932, -293.76727156946436, -14.66227777628228, 13.011111945845187, -0.06400000303983688, 0.01600000075995922, 1.0240000486373901, 0.0, 0.0, 0.0, 0.0, 0.0, 1.70906778394603E9, 0.0, 2024-02-27 13:03:03.946
57.0, -169.2061636452563, -487.52026857389137, -78.88383981538936, -45.82499415706843, -0.06400000303983688, 0.01600000075995922, 1.0240000486373901, 0.0, 0.0, 0.0, 0.0, 0.0, 1.70906778394603E9, 0.0, 2024-02-27 13:03:03.946
58.0, -270.7444474422373, -551.8689872114919, -230.59288151795045, -233.06682533863932, -0.06400000303983688, 0.01600000075995922, 1.0240000486373901, 0.0, 0.0, 0.0, 0.0, 0.0, 1.709067783949378E9, 0.0, 2024-02-27 13:03:03.949
58.0, -96.0275412122719, -317.22018419159576, -36.570611716713756, -3.545425157994032, -0.06400000303983688, 0.01600000075995922, 1.0240000486373901, 0.0, 0.0, 0.0, 0.0, 0.0, 1.709067783949378E9, 0.0, 2024-02-27 13:03:03.949
59.0, -129.7876181122847, -414.1883102427237, -43.72130043199286, -13.25420544296503, -0.06400000303983688, 0.01600000075995922, 1.0240000486373901, 0.0, 0.0, 0.0, 0.0, 0.0, 1.70906778398281E9, 0.0, 2024-02-27 13:03:03.982
59.0, -293.7822311692871, -607.9001683476381, -232.9078795905225, -234.8544975174591, -0.06400000303983688, 0.01600000075995922, 1.0240000486373901, 0.0, 0.0, 0.0, 0.0, 0.0, 1.70906778398281E9, 0.0, 2024-02-27 13:03:03.982
60.0, -147.29034990491346, -382.8292491142638, -92.60553275281563, -67.60243159905076, -0.06400000303983688, 0.01600000075995922, 1.0240000486373901, 0.0, 0.0, 0.0, 0.0, 0.0, 1.709067783985638E9, 0.0, 2024-02-27 13:03:03.985
60.0, -110.2952595432289, -354.5481256493367, -33.59739125194028, -7.390042312443256, -0.06400000303983688, 0.01600000075995922, 1.0240000486373901, 0.0, 0.0, 0.0, 0.0, 0.0, 1.709067783985638E9, 0.0, 2024-02-27 13:03:03.985
61.0, -248.82115390198305, -582.5960052474402, -165.63829908752814, -153.16012288536876, -0.06400000303983688, 0.0, 1.0240000486373901, 0.0, 0.0, 0.0, 0.0, 0.0, 1.70906778398879E9, 0.0, 2024-02-27 13:03:03.988
61.0, -213.37064222199842, -467.7249781084247, -173.5107884942554, -169.559584191069, -0.06400000303983688, 0.0, 1.0240000486373901, 0.0, 0.0, 0.0, 0.0, 0.0, 1.70906778398879E9, 0.0, 2024-02-27 13:03:03.988
67.0, -98.72774898028001, -324.52046890510246, -41.18938816199079, -5.707087332382798, -0.06400000303983688, 0.0, 1.0240000486373901, 0.0, 0.0, 0.0, 0.0, 0.0, 1.7090677839918E9, 0.0, 2024-02-27 13:03:03.991
67.0, -187.46435522893444, -511.3733504912816, -95.10752582317218, -67.69218919798732, -0.06400000303983688, 0.0, 1.0240000486373901, 0.0, 0.0, 0.0, 0.0, 0.0, 1.7090677839918E9, 0.0, 2024-02-27 13:03:03.991
68.0, -281.1189299193211, -576.7019229172729, -245.82175413751975, -250.33394343405962, -0.06400000303983688, 0.0, 1.0240000486373901, 0.0, 0.0, 0.0, 0.0, 0.0, 1.70906778399767E9, 0.0, 2024-02-27 13:03:03.997
68.0, -113.15628300933167, -336.9219771581702, -44.21122732618824, -21.437106546014547, -0.06400000303983688, 0.0, 1.0240000486373901, 0.0, 0.0, 0.0, 0.0, 0.0, 1.70906778399767E9, 0.0, 2024-02-27 13:03:03.997
69.0, -134.69810675410554, -427.64821018325165, -60.47979213343933, -26.53459018561989, -0.06400000303983688, 0.0, 1.0240000486373901, 0.0, 0.0, 0.0, 0.0, 0.0, 1.709067784000692E9, 0.0, 2024-02-27 13:03:04.000
69.0, -299.8670483971946, -613.136028285604, -242.82983417296782, -250.13946863636374, -0.06400000303983688, 0.0, 1.0240000486373901, 0.0, 0.0, 0.0, 0.0, 0.0, 1.709067784000692E9, 0.0, 2024-02-27 13:03:04.000
70.0, -151.47903785528615, -385.80620947899297, -93.51058854209259, -74.93637541215867, -0.06400000303983688, 0.0, 1.0240000486373901, 0.0, 0.0, 0.0, 0.0, 0.0, 1.709067784003949E9, 0.0, 2024-02-27 13:03:04.003
70.0, -111.16291633294895, -357.94769470905885, -42.95836084103212, -15.165294320322573, -0.06400000303983688, 0.0, 1.0240000486373901, 0.0, 0.0, 0.0, 0.0, 0.0, 1.709067784003949E9, 0.0, 2024-02-27 13:03:04.003
71.0, -255.840946118813, -584.4173365258612, -171.99612901220098, -155.90146955288947, -0.06400000303983688, 0.0, 1.0240000486373901, 0.0, 0.0, 0.0, 0.0, 0.0, 1.709067784006832E9, 0.0, 2024-02-27 13:03:04.006
71.0, -224.96807198459283, -485.9121115929447, -186.68271613819525, -171.4183144690469, -0.06400000303983688, 0.0, 1.0240000486373901, 0.0, 0.0, 0.0, 0.0, 0.0, 1.709067784006832E9, 0.0, 2024-02-27 13:03:04.006
72.0, -109.82777204876766, -336.79482055967674, -47.80153128365055, -20.12814156152308, -0.06400000303983688, 0.0, 1.0240000486373901, 0.0, 0.0, 0.0, 0.0, 0.0, 1.709067784163006E9, 0.0, 2024-02-27 13:03:04.163
72.0, -190.46375499339774, -530.8283100607805, -104.06084631709382, -77.47202758211643, -0.06400000303983688, 0.0, 1.0240000486373901, 0.0, 0.0, 0.0, 0.0, 0.0, 1.709067784163006E9, 0.0, 2024-02-27 13:03:04.163
73.0, -297.6829468230717, -592.0691718352027, -260.6541973617859, -259.3171831276268, -0.06400000303983688, 0.0, 1.0240000486373901, 0.0, 0.0, 0.0, 0.0, 0.0, 1.709067784166285E9, 0.0, 2024-02-27 13:03:04.166
73.0, -128.36645612912253, -357.99257350852713, -59.544817144516855, -30.854174634441733, -0.06400000303983688, 0.0, 1.0240000486373901, 0.0, 0.0, 0.0, 0.0, 0.0, 1.709067784166285E9, 0.0, 2024-02-27 13:03:04.166
74.0, -155.69390510534868, -449.8893952197395, -70.03523652022704, -38.072181548923254, -0.06400000303983688, 0.0, 1.0240000486373901, 0.0, 0.0, 0.0, 0.0, 0.0, 1.7090677841695E9, 0.0, 2024-02-27 13:03:04.169
74.0, -319.8044550609775, -643.3282406278886, -266.53705999208614, -263.0982219828293, -0.06400000303983688, 0.0, 1.0240000486373901, 0.0, 0.0, 0.0, 0.0, 0.0, 1.7090677841695E9, 0.0, 2024-02-27 13:03:04.169
75.0, -172.5421544057317, -417.7000763011165, -118.72499404335395, -95.32257007062435, -0.06400000303983688, 0.0, 1.0240000486373901, 0.0, 0.0, 0.0, 0.0, 0.0, 1.709067784172261E9, 0.0, 2024-02-27 13:03:04.172
75.0, -130.20274700736627, -384.99091128865257, -61.85233541717753, -34.9418852860108, -0.06400000303983688, 0.0, 1.0240000486373901, 0.0, 0.0, 0.0, 0.0, 0.0, 1.709067784172261E9, 0.0, 2024-02-27 13:03:04.172
76.0, -273.1566829136573, -617.4630925343372, -191.60068457992747, -176.69157340656966, -0.06400000303983688, 0.0, 1.0240000486373901, 0.0, 0.0, 0.0, 0.0, 0.0, 1.709067784176194E9, 0.0, 2024-02-27 13:03:04.176
76.0, -246.72307002684101, -517.2188141220249, -205.99929940933362, -196.72995736915618, -0.06400000303983688, 0.0, 1.0240000486373901, 0.0, 0.0, 0.0, 0.0, 0.0, 1.709067784176194E9, 0.0, 2024-02-27 13:03:04.176
77.0, -123.6317427852191, -352.6370367719792, -57.588849467691034, -28.378360863775015, -0.06400000303983688, 0.0, 1.0240000486373901, 0.0, 0.0, 0.0, 0.0, 0.0, 1.709067784205289E9, 0.0, 2024-02-27 13:03:04.205
77.0, -214.54497080808505, -544.3143893009983, -120.57998442137614, -87.68569436110556, -0.06400000303983688, 0.0, 1.0240000486373901, 0.0, 0.0, 0.0, 0.0, 0.0, 1.709067784205289E9, 0.0, 2024-02-27 13:03:04.205
78.0, -306.89432041393593, -605.7609455729835, -273.3623774112202, -269.542069606483, -0.06400000303983688, 0.0, 1.0240000486373901, 0.0, 0.0, 0.0, 0.0, 0.0, 1.709067784223398E9, 0.0, 2024-02-27 13:03:04.223
78.0, -135.25909174745902, -362.39069585641846, -67.51080405013636, -38.883739839307964, -0.06400000303983688, 0.0, 1.0240000486373901, 0.0, 0.0, 0.0, 0.0, 0.0, 1.709067784223398E9, 0.0, 2024-02-27 13:03:04.223
89.0, -151.07886856002733, -446.9311343547888, -68.10544814309105, -36.66597916558385, -0.06400000303983688, 0.0, 1.0240000486373901, 0.0, 0.0, 0.0, 0.0, 0.0, 1.709067784226577E9, 0.0, 2024-02-27 13:03:04.226
89.0, -306.2435778216459, -632.9500182508491, -253.16691765049472, -258.9431931320578, -0.06400000303983688, 0.0, 1.0240000486373901, 0.0, 0.0, 0.0, 0.0, 0.0, 1.709067784226577E9, 0.0, 2024-02-27 13:03:04.226
90.0, -162.28734872722998, -404.52440875722095, -105.3997305012308, -87.24064626637846, -0.06400000303983688, 0.0, 1.0240000486373901, 0.0, 0.0, 0.0, 0.0, 0.0, 1.709067784229169E9, 0.0, 2024-02-27 13:03:04.229
90.0, -117.6292033563368, -363.21347384667024, -45.868003006558865, -16.421900705434382, -0.06400000303983688, 0.0, 1.0240000486373901, 0.0, 0.0, 0.0, 0.0, 0.0, 1.709067784229169E9, 0.0, 2024-02-27 13:03:04.229
91.0, -255.38467832421884, -584.4771749251522, -170.6946438276209, -156.3689570473507, -0.06400000303983688, 0.01600000075995922, 1.0240000486373901, 0.0, 0.0, 0.0, 0.0, 0.0, 1.709067784231797E9, 0.0, 2024-02-27 13:03:04.231
91.0, -230.06181572424248, -489.56973374960944, -190.19822209654376, -182.45101933833212, -0.06400000303983688, 0.01600000075995922, 1.0240000486373901, 0.0, 0.0, 0.0, 0.0, 0.0, 1.709067784231797E9, 0.0, 2024-02-27 13:03:04.231
92.0, -105.59046539897099, -325.30958779575303, -38.238607096951455, -11.990119257941842, -0.06400000303983688, 0.01600000075995922, 1.0240000486373901, 0.0, 0.0, 0.0, 0.0, 0.0, 1.709067784282417E9, 0.0, 2024-02-27 13:03:04.282
92.0, -193.01436676317826, -510.20276180515066, -93.3198536443524, -65.47068862430751, -0.06400000303983688, 0.01600000075995922, 1.0240000486373901, 0.0, 0.0, 0.0, 0.0, 0.0, 1.709067784282417E9, 0.0, 2024-02-27 13:03:04.282
93.0, -291.1156825008802, -575.3032003338449, -249.63645209232345, -251.9346206150949, -0.06400000303983688, 0.01600000075995922, 1.0240000486373901, 0.0, 0.0, 0.0, 0.0, 0.0, 1.709067784285448E9, 0.0, 2024-02-27 13:03:04.285
93.0, -119.0728047392331, -336.5105881630443, -49.31993066566065, -16.09652940928936, -0.06400000303983688, 0.01600000075995922, 1.0240000486373901, 0.0, 0.0, 0.0, 0.0, 0.0, 1.709067784285448E9, 0.0, 2024-02-27 13:03:04.285
95.0, 22.613305082079023, -106.52544038789347, 94.97662932472304, 154.1437165737152, -0.06400000303983688, 0.01600000075995922, 1.0240000486373901, 0.0, 0.0, 0.0, 0.0, 0.0, 1.709067784327859E9, 0.0, 2024-02-27 13:03:04.327
95.0, 71.15346660697833, -78.9474181146361, 156.11651380034164, 214.59171955753118, -0.06400000303983688, 0.01600000075995922, 1.0240000486373901, 0.0, 0.0, 0.0, 0.0, 0.0, 1.709067784327859E9, 0.0, 2024-02-27 13:03:04.327
96.0, -68.35976134007797, -310.67161936918274, 24.980661754030734, 79.14376286230981, -0.06400000303983688, 0.01600000075995922, 1.0240000486373901, 0.0, 0.0, 0.0, 0.0, 0.0, 1.709067784330793E9, 0.0, 2024-02-27 13:03:04.330
96.0, -51.066463944967836, -214.0064252144657, 3.5173759083263576, 49.736929510720074, -0.06400000303983688, 0.01600000075995922, 1.0240000486373901, 0.0, 0.0, 0.0, 0.0, 0.0, 1.709067784330793E9, 0.0, 2024-02-27 13:03:04.330
97.0, 74.33612146927044, -51.885502035263926, 150.54780276631936, 217.6247784215957, -0.06400000303983688, 0.01600000075995922, 1.0240000486373901, 0.0, 0.0, 0.0, 0.0, 0.0, 1.709067784333632E9, 0.0, 2024-02-27 13:03:04.333
97.0, -10.062200830783695, -242.19031128054485, 87.36967281484976, 163.77021905966103, -0.06400000303983688, 0.01600000075995922, 1.0240000486373901, 0.0, 0.0, 0.0, 0.0, 0.0, 1.709067784333632E9, 0.0, 2024-02-27 13:03:04.333
98.0, -109.72305485000834, -315.4212923129089, -68.10170824313536, -30.18473254237324, -0.06400000303983688, 0.01600000075995922, 1.0240000486373901, 0.0, 0.0, 0.0, 0.0, 0.0, 1.709067784336776E9, 0.0, 2024-02-27 13:03:04.336
98.0, 61.175413525197655, -77.47015763213858, 132.47660618042573, 203.9853632831946, -0.06400000303983688, 0.01600000075995922, 1.0240000486373901, 0.0, 0.0, 0.0, 0.0, 0.0, 1.709067784336776E9, 0.0, 2024-02-27 13:03:04.336
99.0, 34.603424340020865, -158.74566346919164, 131.13398209633306, 206.46117705386132, -0.06400000303983688, 0.01600000075995922, 1.0240000486373901, 0.0, 0.0, 0.0, 0.0, 0.0, 1.709067784373286E9, 0.0, 2024-02-27 13:03:04.373
99.0, -124.02443228056654, -354.97821414424106, -64.33562898775563, -13.759091936983168, -0.06400000303983688, 0.01600000075995922, 1.0240000486373901, 0.0, 0.0, 0.0, 0.0, 0.0, 1.709067784373286E9, 0.0, 2024-02-27 13:03:04.373
1.0, -106.92560968315229, -264.05376642150804, -87.88577900873497, -48.858053021132946, -0.06400000303983688, 0.0, 1.0240000486373901, 0.0, 0.0, 0.0, 0.0, 0.0, 1.709067784376484E9, 0.0, 2024-02-27 13:03:04.376
1.0, 15.230742569547147, -106.78723338479176, 55.85353588825092, 119.85257387999445, -0.06400000303983688, 0.0, 1.0240000486373901, 0.0, 0.0, 0.0, 0.0, 0.0, 1.709067784376484E9, 0.0, 2024-02-27 13:03:04.376
2.0, -72.8326816870831, -294.2646782635711, 4.082100801635534, 70.50085406471044, -0.06400000303983688, 0.0, 1.0240000486373901, 0.0, 0.0, 0.0, 0.0, 0.0, 1.709067784379639E9, 0.0, 2024-02-27 13:03:04.379
2.0, -169.08648684667423, -369.6797608700581, -157.11880698846653, -122.78091554529965, -0.06400000303983688, 0.0, 1.0240000486373901, 0.0, 0.0, 0.0, 0.0, 0.0, 1.709067784379639E9, 0.0, 2024-02-27 13:03:04.379
5.0, -106.34218529006466, -307.6909191044979, -81.33347428636625, -33.05697570834309, -0.06400000303983688, 0.0, 1.0240000486373901, 0.0, 0.0, 0.0, 0.0, 0.0, 1.709067784382399E9, 0.0, 2024-02-27 13:03:04.382
5.0, -256.3907114122994, -67.06014610547572, -225.17750638211146, -190.0130970487371, -0.06400000303983688, 0.0, 1.0240000486373901, 0.0, 0.0, 0.0, 0.0, 0.0, 1.709067784382399E9, 0.0, 2024-02-27 13:03:04.382
6.0, -248.0993532105349, 10.183747579343617, -263.4703420284204, -235.13499001413584, -0.06400000303983688, 0.0, 1.0240000486373901, 0.0, 0.0, 0.0, 0.0, 0.0, 1.70906778438709E9, 0.0, 2024-02-27 13:03:04.387
6.0, -114.34931109519675, 183.0830624308437, -101.92910334235057, -58.6565909050405, -0.06400000303983688, 0.0, 1.0240000486373901, 0.0, 0.0, 0.0, 0.0, 0.0, 1.70906778438709E9, 0.0, 2024-02-27 13:03:04.387
7.0, -197.02727941563353, 9.806017683818936, -145.93276622099802, -106.048603143543, -0.06400000303983688, 0.0, 1.0240000486373901, 0.0, 0.0, 0.0, 0.0, 0.0, 1.709067784389969E9, 0.0, 2024-02-27 13:03:04.389
7.0, -295.8690953445621, -62.194536263123155, -308.8241087910719, -295.74754859600216, -0.06400000303983688, 0.0, 1.0240000486373901, 0.0, 0.0, 0.0, 0.0, 0.0, 1.709067784389969E9, 0.0, 2024-02-27 13:03:04.389
8.0, -123.32507098885253, 176.76637140568346, -104.00100791780278, -56.958676325157285, -0.06400000303983688, 0.0, 1.0240000486373901, 0.0, 0.0, 0.0, 0.0, 0.0, 1.709067784393165E9, 0.0, 2024-02-27 13:03:04.393
8.0, -140.26307788817212, 101.1568140015006, -106.24494789121673, -52.72510957531631, -0.06400000303983688, 0.0, 1.0240000486373901, 0.0, 0.0, 0.0, 0.0, 0.0, 1.709067784393165E9, 0.0, 2024-02-27 13:03:04.393
10.0, -86.19160432880744, 147.38197745382786, -35.362624031025916, 16.96418619900942, -0.06400000303983688, 0.0, 1.0240000486373901, 0.0, 0.0, 0.0, 0.0, 0.0, 1.709067784395989E9, 0.0, 2024-02-27 13:03:04.395
10.0, -232.86300079105422, -84.09165050368756, -166.69669077498838, -122.62757964711636, -0.06400000303983688, 0.0, 1.0240000486373901, 0.0, 0.0, 0.0, 0.0, 0.0, 1.709067784395989E9, 0.0, 2024-02-27 13:03:04.395
11.0, -205.09050372010097, 13.089649844914675, -185.75522094918415, -151.13309710938483, -0.06400000303983688, 0.0, 1.0240000486373901, 0.0, 0.0, 0.0, 0.0, 0.0, 1.709067784446093E9, 0.0, 2024-02-27 13:03:04.446
11.0, -80.61915339482948, 181.37392815109342, -30.43343588942662, 21.467025745660067, -0.06400000303983688, 0.0, 1.0240000486373901, 0.0, 0.0, 0.0, 0.0, 0.0, 1.709067784446093E9, 0.0, 2024-02-27 13:03:04.446
12.0, -163.84688700875267, 9.301131189800799, -80.59297409513965, -27.091835279017687, -0.0800000037997961, 0.0, 1.0240000486373901, 0.0, 0.0, 0.0, 0.0, 0.0, 1.709067784448951E9, 0.0, 2024-02-27 13:03:04.448
12.0, -266.12193109700456, -66.35704491380602, -234.1308268760331, -221.56663297489285, -0.0800000037997961, 0.0, 1.0240000486373901, 0.0, 0.0, 0.0, 0.0, 0.0, 1.709067784448951E9, 0.0, 2024-02-27 13:03:04.448
13.0, -92.00340885994956, 177.4582528974861, -38.94170828862116, 12.693220449611545, -0.0800000037997961, 0.0, 1.0240000486373901, 0.0, 0.0, 0.0, 0.0, 0.0, 1.70906778449411E9, 0.0, 2024-02-27 13:03:04.494
13.0, -112.3335050190799, 93.79295098874718, -38.82951128995046, 18.04875718615949, -0.0800000037997961, 0.0, 1.0240000486373901, 0.0, 0.0, 0.0, 0.0, 0.0, 1.70906778449411E9, 0.0, 2024-02-27 13:03:04.494
14.0, -277.7418002593331, -102.27504408825189, -234.8002689681016, -216.41305083595216, -0.0800000037997961, 0.0, 1.0240000486373901, 0.0, 0.0, 0.0, 0.0, 0.0, 1.709067784496856E9, 0.0, 2024-02-27 13:03:04.496
14.0, -138.03783741453663, 119.14947268832475, -93.7275027395226, -44.575867571868, -0.0800000037997961, 0.0, 1.0240000486373901, 0.0, 0.0, 0.0, 0.0, 0.0, 1.709067784496856E9, 0.0, 2024-02-27 13:03:04.496
15.0, -96.2145362100564, 146.27496706694365, -35.73661402659491, 19.851388964802027, -0.0800000037997961, 0.0, 1.0240000486373901, 0.0, 0.0, 0.0, 0.0, 0.0, 1.709067784499912E9, 0.0, 2024-02-27 13:03:04.499
15.0, -232.04770260071382, -76.8886031890288, -161.40099243773147, -118.58848769497126, -0.0800000037997961, 0.0, 1.0240000486373901, 0.0, 0.0, 0.0, 0.0, 0.0, 1.709067784499912E9, 0.0, 2024-02-27 13:03:04.499
16.0, -220.73824513470754, 8.134282403625548, -191.19303548475727, -158.76997281890363, -0.0800000037997961, 0.0, 1.0240000486373901, 0.0, 0.0, 0.0, 0.0, 0.0, 1.7090677845034E9, 0.0, 2024-02-27 13:03:04.503
16.0, -93.20391674572602, 181.8675949452445, -35.833851425442845, 15.931973811239004, -0.0800000037997961, 0.0, 1.0240000486373901, 0.0, 0.0, 0.0, 0.0, 0.0, 1.7090677845034E9, 0.0, 2024-02-27 13:03:04.503
17.0, -174.0306345880963, -4.667395144701004, -95.41419761953875, -40.12538662459701, -0.0800000037997961, 0.0, 1.0240000486373901, 0.0, 0.0, 0.0, 0.0, 0.0, 1.709067784537624E9, 0.0, 2024-02-27 13:03:04.537
17.0, -285.58437046641484, -87.5585377626121, -252.55357405776158, -241.4516810392961, -0.0800000037997961, 0.0, 1.0240000486373901, 0.0, 0.0, 0.0, 0.0, 0.0, 1.709067784537624E9, 0.0, 2024-02-27 13:03:04.537
18.0, -109.64077705098316, 155.6995149552822, -54.39871480548754, -7.883709106594324, -0.0800000037997961, 0.0, 1.0240000486373901, 0.0, 0.0, 0.0, 0.0, 0.0, 1.709067784540534E9, 0.0, 2024-02-27 13:03:04.540
18.0, -123.67662158468738, 78.05919187515974, -52.89153512334451, -1.9559676768258214, -0.0800000037997961, 0.0, 1.0240000486373901, 0.0, 0.0, 0.0, 0.0, 0.0, 1.709067784540534E9, 0.0, 2024-02-27 13:03:04.540
19.0, -292.4545666850172, -124.54614832438529, -248.37984570721164, -230.11978417355567, -0.0800000037997961, 0.0, 1.0240000486373901, 0.0, 0.0, 0.0, 0.0, 0.0, 1.70906778454381E9, 0.0, 2024-02-27 13:03:04.543
19.0, -149.3472948805429, 108.36360121611506, -96.5473873061128, -60.80329347960651, -0.0800000037997961, 0.0, 1.0240000486373901, 0.0, 0.0, 0.0, 0.0, 0.0, 1.70906778454381E9, 0.0, 2024-02-27 13:03:04.543
22.0, -225.98906467249617, -78.45562127046287, -153.277929733973, -112.01000367291272, -0.0800000037997961, 0.0, 1.0240000486373901, 0.0, 0.0, 0.0, 0.0, 0.0, 1.709067784547271E9, 0.0, 2024-02-27 13:03:04.547
22.0, -331.12139232689515, -149.659576526843, -310.5295031708665, -302.0754593210295, -0.0800000037997961, 0.0, 1.0240000486373901, 0.0, 0.0, 0.0, 0.0, 0.0, 1.709067784547271E9, 0.0, 2024-02-27 13:03:04.547
23.0, -157.56011518323794, 93.21326649561524, -103.68685632152483, -68.29805299080908, -0.0800000037997961, 0.0, 1.0240000486373901, 0.0, 0.0, 0.0, 0.0, 0.0, 1.709067784553336E9, 0.0, 2024-02-27 13:03:04.553
23.0, -174.26998818526044, 17.566310091875494, -106.07291249325499, -63.95228924229741, -0.0800000037997961, 0.0, 1.0240000486373901, 0.0, 0.0, 0.0, 0.0, 0.0, 1.709067784553336E9, 0.0, 2024-02-27 13:03:04.553
24.0, -341.94466279866174, -181.3477488514036, -297.70164632285014, -286.7269099028781, -0.0800000037997961, 0.0, 1.0240000486373901, 0.0, 0.0, 0.0, 0.0, 0.0, 1.709067784556437E9, 0.0, 2024-02-27 13:03:04.556
24.0, -199.9294417812489, 45.06953436601907, -161.15789894061163, -123.50645613670349, -0.0800000037997961, 0.0, 1.0240000486373901, 0.0, 0.0, 0.0, 0.0, 0.0, 1.709067784556437E9, 0.0, 2024-02-27 13:03:04.556
25.0, -149.02940338430926, 88.87124264705926, -90.58598677674308, -52.66901107598096, -0.0800000037997961, 0.0, 1.0240000486373901, 0.0, 0.0, 0.0, 0.0, 0.0, 1.709067784559479E9, 0.0, 2024-02-27 13:03:04.559
25.0, -284.7167136766948, -133.92581741325557, -211.1154825487174, -187.85517477430403, -0.0800000037997961, 0.0, 1.0240000486373901, 0.0, 0.0, 0.0, 0.0, 0.0, 1.709067784559479E9, 0.0, 2024-02-27 13:03:04.559
26.0, -268.9193762638606, -39.908472427167, -237.02550944173709, -220.4334432883188, -0.0800000037997961, 0.0, 1.0240000486373901, 0.0, 0.0, 0.0, 0.0, 0.0, 1.709067784562186E9, 0.0, 2024-02-27 13:03:04.562
26.0, -139.98632529145107, 130.83292014990002, -80.04320880165324, -40.465717520564795, -0.0800000037997961, 0.0, 1.0240000486373901, 0.0, 0.0, 0.0, 0.0, 0.0, 1.709067784562186E9, 0.0, 2024-02-27 13:03:04.562
27.0, -220.95889923209324, -52.078106882981956, -137.66758731892332, -94.2305192835629, -0.0800000037997961, 0.0, 1.0240000486373901, 0.0, 0.0, 0.0, 0.0, 0.0, 1.709067784566005E9, 0.0, 2024-02-27 13:03:04.566
27.0, -329.90218494134024, -122.84823374450207, -289.76931851683185, -290.29851436056197, -0.0800000037997961, 0.0, 1.0240000486373901, 0.0, 0.0, 0.0, 0.0, 0.0, 1.709067784566005E9, 0.0, 2024-02-27 13:03:04.566
28.0, -149.17151958262548, 118.74556349311024, -92.24276245711371, -54.34448625613004, -0.0800000037997961, 0.0, 1.0240000486373901, 0.0, 0.0, 0.0, 0.0, 0.0, 1.709067784611764E9, 0.0, 2024-02-27 13:03:04.611
28.0, -168.07671385863796, 41.194998011924326, -92.17918415786698, -56.150857934728265, -0.0800000037997961, 0.0, 1.0240000486373901, 0.0, 0.0, 0.0, 0.0, 0.0, 1.709067784611764E9, 0.0, 2024-02-27 13:03:04.611
29.0, -330.9082180294208, -155.10487086232752, -280.8608768223785, -282.9159518480301, -0.0800000037997961, 0.0, 1.0240000486373901, 0.0, 0.0, 0.0, 0.0, 0.0, 1.709067784614675E9, 0.0, 2024-02-27 13:03:04.614
29.0, -188.90047681191936, 70.2951595671475, -142.29010366415605, -119.48232378438115, -0.0800000037997961, 0.0, 1.0240000486373901, 0.0, 0.0, 0.0, 0.0, 0.0, 1.709067784614675E9, 0.0, 2024-02-27 13:03:04.614
30.0, -133.86784896394238, 112.70562506467104, -79.59442080697045, -45.720276958309114, -0.0800000037997961, 0.0, 1.0240000486373901, 0.0, 0.0, 0.0, 0.0, 0.0, 1.70906778461776E9, 0.0, 2024-02-27 13:03:04.617
30.0, -269.7720734537579, -106.11966124270111, -193.76982655422762, -177.0468639023602, -0.0800000037997961, 0.0, 1.0240000486373901, 0.0, 0.0, 0.0, 0.0, 0.0, 1.70906778461776E9, 0.0, 2024-02-27 13:03:04.617
31.0, -255.59785262169316, -29.934159245342016, -230.8284952151589, -221.66761027369648, -0.0800000037997961, 0.0, 1.0240000486373901, 0.0, 0.0, 0.0, 0.0, 0.0, 1.709067784671876E9, 0.0, 2024-02-27 13:03:04.671
31.0, -124.5592379742302, 150.91618291195482, -64.91905338084325, -39.96831082645804, -0.0800000037997961, 0.0, 1.0240000486373901, 0.0, 0.0, 0.0, 0.0, 0.0, 1.709067784671876E9, 0.0, 2024-02-27 13:03:04.671
32.0, -201.7769523593597, -26.770203882828355, -121.8926893058233, -88.09334345627576, -0.0800000037997961, 0.0, 1.0240000486373901, 0.0, 0.0, 0.0, 0.0, 0.0, 1.709067784674823E9, 0.0, 2024-02-27 13:03:04.674
32.0, -315.1370599162765, -111.0525892842561, -285.09444357221946, -289.52435506973416, -0.0800000037997961, 0.0, 1.0240000486373901, 0.0, 0.0, 0.0, 0.0, 0.0, 1.709067784674823E9, 0.0, 2024-02-27 13:03:04.674
33.0, -143.85712174559012, 130.67210445180535, -84.96865704329684, -60.32832618523389, -0.0800000037997961, 0.0, 1.0240000486373901, 0.0, 0.0, 0.0, 0.0, 0.0, 1.70906778471776E9, 0.0, 2024-02-27 13:03:04.717
33.0, -161.88717943197116, 48.59626002423465, -89.3966985908337, -55.21962284576148, -0.0800000037997961, 0.0, 1.0240000486373901, 0.0, 0.0, 0.0, 0.0, 0.0, 1.70906778471776E9, 0.0, 2024-02-27 13:03:04.717
34.0, -329.0345281516202, -157.97337412834167, -284.1482488834299, -288.8399533778429, -0.0800000037997961, 0.0, 1.0240000486373901, 0.0, 0.0, 0.0, 0.0, 0.0, 1.709067784720522E9, 0.0, 2024-02-27 13:03:04.720
34.0, -188.42176961759105, 70.6242707632482, -147.14075390668586, -125.50730261299759, -0.0800000037997961, 0.0, 1.0240000486373901, 0.0, 0.0, 0.0, 0.0, 0.0, 1.709067784720522E9, 0.0, 2024-02-27 13:03:04.720
35.0, -140.78292398201302, 109.88574049808085, -82.25722957542166, -53.304794068448246, -0.0800000037997961, 0.0, 1.0240000486373901, 0.0, 0.0, 0.0, 0.0, 0.0, 1.709067784723805E9, 0.0, 2024-02-27 13:03:04.723
35.0, -276.8816232695244, -117.99758350197226, -204.31634442927316, -192.0139435250312, -0.0800000037997961, 0.0, 1.0240000486373901, 0.0, 0.0, 0.0, 0.0, 0.0, 1.709067784723805E9, 0.0, 2024-02-27 13:03:04.723
36.0, -267.1728429845534, -35.48791067954153, -241.44981108931825, -239.4096956634894, -0.0800000037997961, 0.0, 1.0240000486373901, 0.0, 0.0, 0.0, 0.0, 0.0, 1.709067784726761E9, 0.0, 2024-02-27 13:03:04.726
36.0, -136.0444707381539, 140.6239782338962, -76.14249314786866, -53.92935736104846, -0.0800000037997961, 0.0, 1.0240000486373901, 0.0, 0.0, 0.0, 0.0, 0.0, 1.709067784726761E9, 0.0, 2024-02-27 13:03:04.726
37.0, -215.59214279567823, -37.660792553797364, -131.90440148720518, -102.13666778989136, -0.0800000037997961, 0.0, 1.0240000486373901, 0.0, 0.0, 0.0, 0.0, 0.0, 1.709067784731271E9, 0.0, 2024-02-27 13:03:04.731
37.0, -324.75234270235524, -120.14054617658257, -296.5198379368521, -303.56393950339407, -0.0800000037997961, 0.0, 1.0240000486373901, 0.0, 0.0, 0.0, 0.0, 0.0, 1.709067784731271E9, 0.0, 2024-02-27 13:03:04.731
40.0, -277.9923735563643, -80.51630614604801, -235.9035394550301, -236.26817970070988, -0.0800000037997961, 0.0, 1.0240000486373901, 0.0, 0.0, 0.0, 0.0, 0.0, 1.709067784760714E9, 0.0, 2024-02-27 13:03:04.760
40.0, -412.954143257346, -303.72101530153304, -353.3700571632944, -361.9886566111818, -0.0800000037997961, 0.0, 1.0240000486373901, 0.0, 0.0, 0.0, 0.0, 0.0, 1.709067784760714E9, 0.0, 2024-02-27 13:03:04.760
41.0, -397.4672175408341, -219.4760288996622, -390.73539762059227, -408.09788316488266, -0.0800000037997961, 0.01600000075995922, 1.0240000486373901, 0.0, 0.0, 0.0, 0.0, 0.0, 1.709067784776767E9, 0.0, 2024-02-27 13:03:04.776
41.0, -264.78678681282327, -53.08040007110685, -229.93091922579333, -228.41812969371676, -0.0800000037997961, 0.01600000075995922, 1.0240000486373901, 0.0, 0.0, 0.0, 0.0, 0.0, 1.709067784776767E9, 0.0, 2024-02-27 13:03:04.776
44.0, -430.98794084368274, -259.1227083299309, -427.79780618147925, -459.5850858548656, -0.0800000037997961, 0.01600000075995922, 1.0240000486373901, 0.0, 0.0, 0.0, 0.0, 0.0, 1.709067784779763E9, 0.0, 2024-02-27 13:03:04.779
44.0, -294.6685874587856, -35.74222387652844, -288.9278410268016, -302.19887601956725, -0.0800000037997961, 0.01600000075995922, 1.0240000486373901, 0.0, 0.0, 0.0, 0.0, 0.0, 1.709067784779763E9, 0.0, 2024-02-27 13:03:04.779
45.0, -251.56250056950375, -0.605863792821765, -237.73983033327386, -231.31655215937644, -0.0800000037997961, 0.01600000075995922, 1.0240000486373901, 0.0, 0.0, 0.0, 0.0, 0.0, 1.70906778478276E9, 0.0, 2024-02-27 13:03:04.782
45.0, -377.8364826734178, -222.7035625614226, -353.2242010650225, -365.9080717647448, -0.0800000037997961, 0.01600000075995922, 1.0240000486373901, 0.0, 0.0, 0.0, 0.0, 0.0, 1.70906778478276E9, 0.0, 2024-02-27 13:03:04.782
46.0, -368.35583628574386, -139.76380124408752, -383.2294184095226, -406.39248878508806, -0.0800000037997961, 0.01600000075995922, 1.0240000486373901, 0.0, 0.0, 0.0, 0.0, 0.0, 1.709067784883009E9, 0.0, 2024-02-27 13:03:04.883
46.0, -239.66961871040985, 30.741977635771036, -224.27993039274588, -227.78608660120517, -0.0800000037997961, 0.01600000075995922, 1.0240000486373901, 0.0, 0.0, 0.0, 0.0, 0.0, 1.709067784883009E9, 0.0, 2024-02-27 13:03:04.883
47.0, -314.45265822438523, -144.77900708466768, -272.53585952101275, -273.3193685617298, -0.0800000037997961, 0.01600000075995922, 1.0240000486373901, 0.0, 0.0, 0.0, 0.0, 0.0, 1.709067784885868E9, 0.0, 2024-02-27 13:03:04.885
47.0, -425.4117500097491, -226.46964181680232, -436.5865710773505, -474.54468567762524, -0.0800000037997961, 0.01600000075995922, 1.0240000486373901, 0.0, 0.0, 0.0, 0.0, 0.0, 1.709067784885868E9, 0.0, 2024-02-27 13:03:04.885
48.0, -245.93395113619044, -468.3981601004489, -233.30804888578132, -233.39593653474003, -0.0800000037997961, 0.01600000075995922, 1.0240000486373901, 0.0, 0.0, 0.0, 0.0, 0.0, 1.709067784888793E9, 0.0, 2024-02-27 13:03:04.888
48.0, -261.52559405146167, -547.3250087653287, -231.80460910359398, -230.16840287297964, -0.0800000037997961, 0.01600000075995922, 1.0240000486373901, 0.0, 0.0, 0.0, 0.0, 0.0, 1.709067784888793E9, 0.0, 2024-02-27 13:03:04.888
50.0, -217.10306237777695, -506.72091494640335, -166.21798358066007, -159.30477851256728, -0.0800000037997961, 0.01600000075995922, 1.0240000486373901, 0.0, 0.0, 0.0, 0.0, 0.0, 1.709067784891815E9, 0.0, 2024-02-27 13:03:04.891
50.0, -351.17099598934874, -731.6010992820375, -288.235959534999, -292.2096032379195, -0.0800000037997961, 0.01600000075995922, 1.0240000486373901, 0.0, 0.0, 0.0, 0.0, 0.0, 1.709067784891815E9, 0.0, 2024-02-27 13:03:04.891
51.0, -336.49562856322154, -649.8880251501687, -325.33202719548717, -341.65856045205146, -0.0800000037997961, 0.01600000075995922, 1.0240000486373901, 0.0, 0.0, 0.0, 0.0, 0.0, 1.709067784896405E9, 0.0, 2024-02-27 13:03:04.896
51.0, -206.706140500959, -474.07158833323047, -163.67111171083525, -157.7826392306015, -0.0800000037997961, 0.01600000075995922, 1.0240000486373901, 0.0, 0.0, 0.0, 0.0, 0.0, 1.709067784896405E9, 0.0, 2024-02-27 13:03:04.896
52.0, -279.6042704372667, -656.1486176759936, -218.2699111639522, -206.947364048101, -0.0800000037997961, 0.01600000075995922, 1.0240000486373901, 0.0, 0.0, 0.0, 0.0, 0.0, 1.709067784926097E9, 0.0, 2024-02-27 13:03:04.926
52.0, -395.0549820694141, -731.4290638840757, -380.66384703991935, -408.0417846655473, -0.0800000037997961, 0.01600000075995922, 1.0240000486373901, 0.0, 0.0, 0.0, 0.0, 0.0, 1.709067784926097E9, 0.0, 2024-02-27 13:03:04.926
53.0, -220.10620204219595, -975.5603832416236, -169.35201974352822, -166.4517273278907, -0.0800000037997961, 0.01600000075995922, 1.0240000486373901, 0.0, 0.0, 0.0, 0.0, 0.0, 1.709067784928981E9, 0.0, 2024-02-27 13:03:04.928
53.0, -229.26895693363622, -1048.2378590805456, -167.04450147086754, -160.19861460197717, -0.0800000037997961, 0.01600000075995922, 1.0240000486373901, 0.0, 0.0, 0.0, 0.0, 0.0, 1.709067784928981E9, 0.0, 2024-02-27 13:03:04.928
61.0, -221.9013540209271, -974.0083247600123, -207.38306239293888, -217.71827592048794, -0.0800000037997961, 0.01600000075995922, 1.0240000486373901, 0.0, 0.0, 0.0, 0.0, 0.0, 1.7090677849431E9, 0.0, 2024-02-27 13:03:04.943
61.0, -92.47463625436649, -808.5252315206453, -53.84520961204544, -40.013189625926316, -0.0800000037997961, 0.01600000075995922, 1.0240000486373901, 0.0, 0.0, 0.0, 0.0, 0.0, 1.7090677849431E9, 0.0, 2024-02-27 13:03:04.943
62.0, -163.0577681181021, -974.2476783571765, -97.9161906898953, -81.12964973878115, -0.0800000037997961, 0.01600000075995922, 1.0240000486373901, 0.0, 0.0, 0.0, 0.0, 0.0, 1.70906778494621E9, 0.0, 2024-02-27 13:03:04.946
62.0, -276.0850245789625, -1062.89826690685, -263.86677142372355, -288.37620578333735, -0.0800000037997961, 0.01600000075995922, 1.0240000486373901, 0.0, 0.0, 0.0, 0.0, 0.0, 1.70906778494621E9, 0.0, 2024-02-27 13:03:04.946
63.0, -104.82752580801025, -820.335835580714, -61.87851471686736, -46.475736749358475, -0.0800000037997961, 0.01600000075995922, 1.0240000486373901, 0.0, 0.0, 0.0, 0.0, 0.0, 1.70906778494948E9, 0.0, 2024-02-27 13:03:04.949
63.0, -109.58467855164781, -889.1574745653197, -58.20593296037987, -37.74681025277823, -0.0800000037997961, 0.01600000075995922, 1.0240000486373901, 0.0, 0.0, 0.0, 0.0, 0.0, 1.70906778494948E9, 0.0, 2024-02-27 13:03:04.949
64.0, -277.188295065891, -1095.401737421751, -249.13156559830531, -263.2029391815886, -0.0800000037997961, 0.01600000075995922, 1.0240000486373901, 0.0, 0.0, 0.0, 0.0, 0.0, 1.709067784952855E9, 0.0, 2024-02-27 13:03:04.952
64.0, -141.59448227239773, -874.5718647381291, -116.50349346967414, -108.15042691864073, -0.0800000037997961, 0.01600000075995922, 1.0240000486373901, 0.0, 0.0, 0.0, 0.0, 0.0, 1.709067784952855E9, 0.0, 2024-02-27 13:03:04.952
65.0, -91.42372436681762, -829.1208605766296, -46.94883409375325, -28.464378562755883, -0.0800000037997961, 0.01600000075995922, 1.0240000486373901, 0.0, 0.0, 0.0, 0.0, 0.0, 1.709067784957069E9, 0.0, 2024-02-27 13:03:04.957
65.0, -221.8228161218576, -1048.7689248742536, -163.75338950986043, -156.82896474190056, -0.0800000037997961, 0.01600000075995922, 1.0240000486373901, 0.0, 0.0, 0.0, 0.0, 0.0, 1.709067784957069E9, 0.0, 2024-02-27 13:03:04.957
66.0, -215.76417819363996, -974.4084940552711, -205.07180422032252, -210.93409740086645, -0.0800000037997961, 0.01600000075995922, 1.0240000486373901, 0.0, 0.0, 0.0, 0.0, 0.0, 1.709067785002368E9, 0.0, 2024-02-27 13:03:05.002
66.0, -81.89445927971974, -798.0273323450238, -40.54612536961213, -28.797229658812284, -0.0800000037997961, 0.01600000075995922, 1.0240000486373901, 0.0, 0.0, 0.0, 0.0, 0.0, 1.709067785002368E9, 0.0, 2024-02-27 13:03:05.002
67.0, -152.20457844669, -976.8207295266911, -91.93609066074714, -65.45198912452906, -0.0800000037997961, 0.01600000075995922, 1.0240000486373901, 0.0, 0.0, 0.0, 0.0, 0.0, 1.709067785005863E9, 0.0, 2024-02-27 13:03:05.005
67.0, -274.08791800262406, -1068.3398213423789, -263.71343552554026, -280.915105371736, -0.0800000037997961, 0.01600000075995922, 1.0240000486373901, 0.0, 0.0, 0.0, 0.0, 0.0, 1.709067785005863E9, 0.0, 2024-02-27 13:03:05.005
68.0, -94.20620993385091, -1309.1912484387867, -57.45047316933051, -37.50745665561408, -0.0800000037997961, 0.01600000075995922, 1.0240000486373901, 0.0, 0.0, 0.0, 0.0, 0.0, 1.709067785009495E9, 0.0, 2024-02-27 13:03:05.009
68.0, -107.98774127056822, -1375.8736646487378, -53.23934581922367, -29.41805305145681, -0.0800000037997961, 0.01600000075995922, 1.0240000486373901, 0.0, 0.0, 0.0, 0.0, 0.0, 1.709067785009495E9, 0.0, 2024-02-27 13:03:05.009
69.0, -276.06258517922834, -1579.6907324339263, -244.63246595161036, -258.5205844370648, -0.0800000037997961, 0.01600000075995922, 1.0240000486373901, 0.0, 0.0, 0.0, 0.0, 0.0, 1.709067785045476E9, 0.0, 2024-02-27 13:03:05.045
69.0, -139.44777969783172, -1363.8536261911504, -108.05879936972633, -102.85472858138382, -0.0800000037997961, 0.01600000075995922, 1.0240000486373901, 0.0, 0.0, 0.0, 0.0, 0.0, 1.709067785045476E9, 0.0, 2024-02-27 13:03:05.045
70.0, -84.44881094945595, -1317.351710142102, -40.628403168637305, -28.082908767275512, -0.0800000037997961, 0.01600000075995922, 1.0240000486373901, 0.0, 0.0, 0.0, 0.0, 0.0, 1.709067785092666E9, 0.0, 2024-02-27 13:03:05.092
70.0, -216.59069608384743, -1532.3398590949364, -153.56216213060543, -155.68829525541514, -0.0800000037997961, 0.01600000075995922, 1.0240000486373901, 0.0, 0.0, 0.0, 0.0, 0.0, 1.709067785092666E9, 0.0, 2024-02-27 13:03:05.092
71.0, -189.82423210097477, -1412.764037811663, -164.99503629514948, -180.03504396695644, -0.0800000037997961, 0.0, 1.0240000486373901, 0.0, 0.0, 0.0, 0.0, 0.0, 1.7090677850959E9, 0.0, 2024-02-27 13:03:05.095
71.0, -75.04670246085152, -1276.624199624639, -33.55625235242769, -18.673320478759706, -0.0800000037997961, 0.0, 1.0240000486373901, 0.0, 0.0, 0.0, 0.0, 0.0, 1.7090677850959E9, 0.0, 2024-02-27 13:03:05.095
72.0, -152.25319714611396, -1452.7173890382983, -83.51009606057778, -66.20744891557842, -0.0800000037997961, 0.0, 1.0240000486373901, 0.0, 0.0, 0.0, 0.0, 0.0, 1.709067785098737E9, 0.0, 2024-02-27 13:03:05.098
72.0, -266.9334893873893, -1534.972748663742, -252.04868756374344, -270.96323158964515, -0.0800000037997961, 0.0, 1.0240000486373901, 0.0, 0.0, 0.0, 0.0, 0.0, 1.709067785098737E9, 0.0, 2024-02-27 13:03:05.098
73.0, -91.51348196575418, -1291.3220064505003, -46.51500569889322, -32.14818001911044, -0.0800000037997961, 0.0, 1.0240000486373901, 0.0, 0.0, 0.0, 0.0, 0.0, 1.709067785101636E9, 0.0, 2024-02-27 13:03:05.101
73.0, -114.48768739355728, -1373.4913483769633, -52.704540125560015, -32.5333897145465, -0.0800000037997961, 0.0, 1.0240000486373901, 0.0, 0.0, 0.0, 0.0, 0.0, 1.709067785101636E9, 0.0, 2024-02-27 13:03:05.101
74.0, -273.86352400528267, -1569.5256843543611, -241.43859138945118, -254.95271987933666, -0.0800000037997961, 0.0, 1.0240000486373901, 0.0, 0.0, 0.0, 0.0, 0.0, 1.70906778510688E9, 0.0, 2024-02-27 13:03:05.106
74.0, -139.74323179433122, -1356.9572506728582, -112.19886862067506, -103.28481707628816, -0.0800000037997961, 0.0, 1.0240000486373901, 0.0, 0.0, 0.0, 0.0, 0.0, 1.70906778510688E9, 0.0, 2024-02-27 13:03:05.106
75.0, -84.2805154514499, -1310.1935416269116, -35.48978062951937, -16.48173910472542, -0.0800000037997961, 0.0, 1.0240000486373901, 0.0, 0.0, 0.0, 0.0, 0.0, 1.709067785110097E9, 0.0, 2024-02-27 13:03:05.110
75.0, -218.03803736669943, -1530.4212904176675, -154.8000690159388, -146.0318735698238, -0.0800000037997961, 0.0, 1.0240000486373901, 0.0, 0.0, 0.0, 0.0, 0.0, 1.709067785110097E9, 0.0, 2024-02-27 13:03:05.110
77.0, -293.91686756769195, -1702.8231985750608, -206.2311732065864, -192.6123275179416, -0.0800000037997961, 0.0, 1.0240000486373901, 0.0, 0.0, 0.0, 0.0, 0.0, 1.709067785112909E9, 0.0, 2024-02-27 13:03:05.112
77.0, -415.15694433124736, -1796.604929863941, -375.51774470089003, -404.61229640617967, -0.0800000037997961, 0.0, 1.0240000486373901, 0.0, 0.0, 0.0, 0.0, 0.0, 1.709067785112909E9, 0.0, 2024-02-27 13:03:05.112
82.0, -487.9129580692388, -1973.3787810695358, -421.63819095445797, -445.63151912018657, -0.0800000037997961, 0.0, 1.0240000486373901, 0.0, 0.0, 0.0, 0.0, 0.0, 1.709067785115901E9, 0.0, 2024-02-27 13:03:05.115
82.0, -610.1179290213622, -2061.6179806240834, -591.5156666417606, -657.2799374125898, -0.0800000037997961, 0.0, 1.0240000486373901, 0.0, 0.0, 0.0, 0.0, 0.0, 1.709067785115901E9, 0.0, 2024-02-27 13:03:05.115
83.0, -432.08747143065557, -2305.079857889563, -389.4937508353032, -420.39841411914676, -0.0800000037997961, 0.0, 1.0240000486373901, 0.0, 0.0, 0.0, 0.0, 0.0, 1.709067785150685E9, 0.0, 2024-02-27 13:03:05.150
83.0, -443.43058799626306, -2376.5044672433287, -387.638760457281, -410.91776773147285, -0.0800000037997961, 0.0, 1.0240000486373901, 0.0, 0.0, 0.0, 0.0, 0.0, 1.709067785150685E9, 0.0, 2024-02-27 13:03:05.150
84.0, -609.9720729230903, -2579.5324161378667, -577.0459937131964, -632.2525269091129, -0.0800000037997961, 0.0, 1.0240000486373901, 0.0, 0.0, 0.0, 0.0, 0.0, 1.709067785273243E9, 0.0, 2024-02-27 13:03:05.273
84.0, -476.48756370460615, -2363.0109082031995, -449.9305341192521, -487.7502724211663, -0.0800000037997961, 0.0, 1.0240000486373901, 0.0, 0.0, 0.0, 0.0, 0.0, 1.709067785273243E9, 0.0, 2024-02-27 13:03:05.273
85.0, -423.46326213283464, -2317.283151444979, -378.5021848655306, -407.7912113685161, -0.0800000037997961, 0.0, 1.0240000486373901, 0.0, 0.0, 0.0, 0.0, 0.0, 1.709067785276192E9, 0.0, 2024-02-27 13:03:05.276
