%OpenBCI Raw EXG Data
%Number of channels = 4
%Sample Rate = 200 Hz
%Board = OpenBCI_GUI$BoardGanglionBLE
Sample Index, EXG Channel 0, EXG Channel 1, EXG Channel 2, EXG Channel 3, Accel Channel 0, Accel Channel 1, Accel Channel 2, Other, Other, Other, Other, Other, Timestamp, Other, Timestamp (Formatted)
2.0, 53.40203146729618, 83.652212258894, -36.08255477249622, 100.44623300991952, -0.04800000227987766, 0.0, 0.0, 0.0, 0.0, 0.0, 0.0, 0.0, 1.707110494783321E9, 0.0, 2024-02-04 21:21:34.783
2.0, 243.33098076703027, 48.121292729862034, 42.507702896371484, 58.361138808541, -0.04800000227987766, 0.0, 0.0, 0.0, 0.0, 0.0, 0.0, 0.0, 1.707110494783321E9, 0.0, 2024-02-04 21:21:34.783
3.0, 188.67421286460012, 195.3705037352629, -55.88532503787428, 23.33323582354933, -0.04800000227987766, 0.0, 0.0, 0.0, 0.0, 0.0, 0.0, 0.0, 1.707110494792643E9, 0.0, 2024-02-04 21:21:34.792
3.0, 66.03915341757238, 99.35605217283592, 53.338453168049455, 224.24066144321114, -0.04800000227987766, 0.0, 0.0, 0.0, 0.0, 0.0, 0.0, 0.0, 1.707110494792643E9, 0.0, 2024-02-04 21:21:34.792
4.0, 16.85572910029441, 2.853543666191399, 89.61548273824155, 129.8381067616865, -0.04800000227987766, 0.0, 0.0, 0.0, 0.0, 0.0, 0.0, 0.0, 1.707110494796176E9, 0.0, 2024-02-04 21:21:34.796
4.0, 134.0679336115718, -158.186548425816, -23.198599425144494, 1.1070103868842125, -0.04800000227987766, 0.0, 0.0, 0.0, 0.0, 0.0, 0.0, 0.0, 1.707110494796176E9, 0.0, 2024-02-04 21:21:34.796
5.0, 291.02218500198796, 27.740707921329886, 13.074690245091915, 181.22807205282152, -0.04800000227987766, 0.0, 0.0, 0.0, 0.0, 0.0, 0.0, 0.0, 1.707110494806357E9, 0.0, 2024-02-04 21:21:34.806
5.0, 349.467471559532, -127.26879549212754, 117.21594441123307, 212.57965338137, -0.04800000227987766, 0.0, 0.0, 0.0, 0.0, 0.0, 0.0, 0.0, 1.707110494806357E9, 0.0, 2024-02-04 21:21:34.806
6.0, 460.3368057459593, -26.699145783670247, 10.280984978191555, 17.038984198123217, -0.04800000227987766, 0.0, 0.0, 0.0, 0.0, 0.0, 0.0, 0.0, 1.7071104948218E9, 0.0, 2024-02-04 21:21:34.821
6.0, 510.608540950343, 65.62215457251295, -14.185440531931818, 120.29014217481017, -0.04800000227987766, 0.0, 0.0, 0.0, 0.0, 0.0, 0.0, 0.0, 1.7071104948218E9, 0.0, 2024-02-04 21:21:34.821
7.0, 382.16541687212884, 222.13322781817988, 102.06560969073325, 238.93846826907247, -0.04800000227987766, 0.0, 0.0, 0.0, 0.0, 0.0, 0.0, 0.0, 1.707110494824794E9, 0.0, 2024-02-04 21:21:34.824
7.0, 220.21839904086664, 39.654159230180085, 66.38696411345154, 69.12831078097224, -0.04800000227987766, 0.0, 0.0, 0.0, 0.0, 0.0, 0.0, 0.0, 1.707110494824794E9, 0.0, 2024-02-04 21:21:34.824
8.0, 161.05879159178585, 186.26384734315798, -45.61181985959411, 35.46921117976308, -0.04800000227987766, 0.0, 0.0, 0.0, 0.0, 0.0, 0.0, 0.0, 1.707110494836036E9, 0.0, 2024-02-04 21:21:34.836
8.0, 42.862993392162025, 96.05372051196173, 62.26185446232557, 231.9598149517551, -0.04800000227987766, 0.0, 0.0, 0.0, 0.0, 0.0, 0.0, 0.0, 1.707110494836036E9, 0.0, 2024-02-04 21:21:34.836
9.0, 6.83279721904546, 5.377976136282086, 98.40798753406852, 134.98420910071582, -0.04800000227987766, 0.0, 0.0, 0.0, 0.0, 0.0, 0.0, 0.0, 1.707110494852325E9, 0.0, 2024-02-04 21:21:34.852
9.0, 126.07950730621815, -151.72774120233953, -21.635321243666112, 10.86814927123487, -0.04800000227987766, 0.0, 0.0, 0.0, 0.0, 0.0, 0.0, 0.0, 1.707110494852325E9, 0.0, 2024-02-04 21:21:34.852
10.0, 292.4994454844855, 35.56831852858886, 16.388241605833173, 181.44124635029584, -0.04800000227987766, 0.0, 1.0240000486373901, 0.0, 0.0, 0.0, 0.0, 0.0, 1.707110494867175E9, 0.0, 2024-02-04 21:21:34.867
10.0, 353.3943665130064, -111.28820298146456, 119.18313178792596, 209.85326631367207, -0.04800000227987766, 0.0, 1.0240000486373901, 0.0, 0.0, 0.0, 0.0, 0.0, 1.707110494867175E9, 0.0, 2024-02-04 21:21:34.867
11.0, 473.32173839211464, -6.806617919355631, 12.308010754175484, 11.324417065829039, -0.04800000227987766, 0.01600000075995922, 1.0240000486373901, 0.0, 0.0, 0.0, 0.0, 0.0, 1.707110494871109E9, 0.0, 2024-02-04 21:21:34.871
11.0, 520.3135813353583, 76.32200834574178, -22.17386683728546, 114.35492094513029, -0.04800000227987766, 0.01600000075995922, 1.0240000486373901, 0.0, 0.0, 0.0, 0.0, 0.0, 1.707110494871109E9, 0.0, 2024-02-04 21:21:34.871
12.0, 401.71387394052, 242.85227357270196, 85.19492099061608, 223.57495925109833, -0.04800000227987766, 0.01600000075995922, 1.0240000486373901, 0.0, 0.0, 0.0, 0.0, 0.0, 1.707110494882143E9, 0.0, 2024-02-04 21:21:34.882
12.0, 240.8776063960977, 56.71558282803744, 50.19693720526993, 63.342685549519956, -0.04800000227987766, 0.01600000075995922, 1.0240000486373901, 0.0, 0.0, 0.0, 0.0, 0.0, 1.707110494882143E9, 0.0, 2024-02-04 21:21:34.882
13.0, 186.4601920908317, 202.43143485160545, -55.95638313703239, 31.145886830985546, -0.04800000227987766, 0.01600000075995922, 1.0240000486373901, 0.0, 0.0, 0.0, 0.0, 0.0, 1.70711049488531E9, 0.0, 2024-02-04 21:21:34.885
13.0, 65.49686792399734, 111.64162352727726, 48.929111120291054, 218.20446291472763, -0.04800000227987766, 0.01600000075995922, 1.0240000486373901, 0.0, 0.0, 0.0, 0.0, 0.0, 1.70711049488531E9, 0.0, 2024-02-04 21:21:34.885
14.0, 30.334328540600836, 17.71964599005878, 84.89572899416089, 126.52829530090094, -0.04800000227987766, 0.01600000075995922, 1.0240000486373901, 0.0, 0.0, 0.0, 0.0, 0.0, 1.707110494896136E9, 0.0, 2024-02-04 21:21:34.896
14.0, 141.06154652871192, -149.50250072870404, -33.0532358083874, -2.1915813740342855, -0.04800000227987766, 0.01600000075995922, 1.0240000486373901, 0.0, 0.0, 0.0, 0.0, 0.0, 1.707110494896136E9, 0.0, 2024-02-04 21:21:34.896
15.0, 308.4201995958574, 40.32173137227073, 9.387148888781667, 174.74308552965522, -0.04800000227987766, 0.01600000075995922, 1.0240000486373901, 0.0, 0.0, 0.0, 0.0, 0.0, 1.707110494911801E9, 0.0, 2024-02-04 21:21:34.911
15.0, 364.07926068641245, -119.20183128770441, 109.76980359945446, 204.88667917251587, -0.04800000227987766, 0.01600000075995922, 1.0240000486373901, 0.0, 0.0, 0.0, 0.0, 0.0, 1.707110494911801E9, 0.0, 2024-02-04 21:21:34.911
16.0, 471.2947126161307, -23.161200425587595, 7.2254867143929005, 14.002185434103012, -0.04800000227987766, 0.01600000075995922, 1.0240000486373901, 0.0, 0.0, 0.0, 0.0, 0.0, 1.707110494914797E9, 0.0, 2024-02-04 21:21:34.914
16.0, 512.8337814239785, 66.8301422582008, -22.689973031170666, 119.59452078305185, -0.04800000227987766, 0.01600000075995922, 1.0240000486373901, 0.0, 0.0, 0.0, 0.0, 0.0, 1.707110494914797E9, 0.0, 2024-02-04 21:21:34.914
17.0, 385.7482410296798, 228.9061866379343, 94.15198138449341, 234.61140402033925, -0.04800000227987766, 0.01600000075995922, 1.0240000486373901, 0.0, 0.0, 0.0, 0.0, 0.0, 1.70711049492629E9, 0.0, 2024-02-04 21:21:34.926
17.0, 216.76273148180917, 34.18642549496144, 67.55381289962679, 77.50568668171763, -0.04800000227987766, 0.01600000075995922, 1.0240000486373901, 0.0, 0.0, 0.0, 0.0, 0.0, 1.70711049492629E9, 0.0, 2024-02-04 21:21:34.926
18.0, 151.35001130681485, 180.97188890585676, -35.33457478135824, 51.666717887856066, -0.04800000227987766, 0.01600000075995922, 1.0240000486373901, 0.0, 0.0, 0.0, 0.0, 0.0, 1.707110494942574E9, 0.0, 2024-02-04 21:21:34.942
18.0, 30.790596335195005, 97.93489018967375, 72.33340504299849, 240.42320855148137, -0.04800000227987766, 0.01600000075995922, 1.0240000486373901, 0.0, 0.0, 0.0, 0.0, 0.0, 1.707110494942574E9, 0.0, 2024-02-04 21:21:34.942
19.0, -9.136575591750443, -0.8713966896757483, 108.21774511784315, 151.589364903979, -0.04800000227987766, 0.01600000075995922, 1.0240000486373901, 0.0, 0.0, 0.0, 0.0, 0.0, 1.70711049494591E9, 0.0, 2024-02-04 21:21:34.945
19.0, 99.43272012192756, -171.22009977139533, -8.497052699327469, 28.460638662800193, -0.04800000227987766, 0.01600000075995922, 1.0240000486373901, 0.0, 0.0, 0.0, 0.0, 0.0, 1.70711049494591E9, 0.0, 2024-02-04 21:21:34.945
20.0, 263.49652132811025, 31.446948777418584, 28.54665636178106, 195.03204278927296, -0.04800000227987766, 0.01600000075995922, 1.0240000486373901, 0.0, 0.0, 0.0, 0.0, 0.0, 1.707110494956488E9, 0.0, 2024-02-04 21:21:34.956
20.0, 329.8142972923815, -117.08504791278392, 126.90228529646993, 225.47108852863312, -0.04800000227987766, 0.01600000075995922, 1.0240000486373901, 0.0, 0.0, 0.0, 0.0, 0.0, 1.707110494956488E9, 0.0, 2024-02-04 21:21:34.956
21.0, 438.19285810831934, -27.966971868649125, 21.485725245438516, 29.04406305588782, -0.04800000227987766, 0.0, 1.0240000486373901, 0.0, 0.0, 0.0, 0.0, 0.0, 1.707110494971819E9, 0.0, 2024-02-04 21:21:34.971
21.0, 484.72469335701317, 76.55388214299455, -9.200153890997171, 132.89734492544085, -0.04800000227987766, 0.0, 1.0240000486373901, 0.0, 0.0, 0.0, 0.0, 0.0, 1.707110494971819E9, 0.0, 2024-02-04 21:21:34.971
22.0, 365.2498493725434, 237.87820663163438, 103.21001907717437, 237.95487458072603, -0.04800000227987766, 0.0, 1.0240000486373901, 0.0, 0.0, 0.0, 0.0, 0.0, 1.707110494974797E9, 0.0, 2024-02-04 21:21:34.974
22.0, 205.3373371171765, 38.808941840194166, 66.7721738088876, 78.93432846479118, -0.04800000227987766, 0.0, 1.0240000486373901, 0.0, 0.0, 0.0, 0.0, 0.0, 1.707110494974797E9, 0.0, 2024-02-04 21:21:34.974
23.0, 144.6967292856425, 190.32163879508153, -33.9059329982847, 51.17679099366069, -0.04800000227987766, 0.0, 1.0240000486373901, 0.0, 0.0, 0.0, 0.0, 0.0, 1.707110494986036E9, 0.0, 2024-02-04 21:21:34.986
23.0, 39.261469734832644, 107.74838767340407, 70.4036166658625, 238.7813924709335, -0.04800000227987766, 0.0, 1.0240000486373901, 0.0, 0.0, 0.0, 0.0, 0.0, 1.707110494986036E9, 0.0, 2024-02-04 21:21:34.986
24.0, 8.01834550499916, 7.5845171101391315, 100.26297791209072, 141.27098092623055, -0.04800000227987766, 0.0, 1.0240000486373901, 0.0, 0.0, 0.0, 0.0, 0.0, 1.707110495002206E9, 0.0, 2024-02-04 21:21:35.002
24.0, 113.37880705669522, -159.80966500658542, -15.875875311903656, 15.146594820544124, -0.04800000227987766, 0.0, 1.0240000486373901, 0.0, 0.0, 0.0, 0.0, 0.0, 1.707110495002206E9, 0.0, 2024-02-04 21:21:35.002
25.0, 281.3695032163523, 40.57978446921334, 23.76332431845367, 188.96218516118824, -0.04800000227987766, 0.0, 1.0240000486373901, 0.0, 0.0, 0.0, 0.0, 0.0, 1.707110495017133E9, 0.0, 2024-02-04 21:21:35.017
25.0, 359.5764211397618, -109.87452079821378, 119.74785668123513, 212.08972648717463, -0.04800000227987766, 0.0, 1.0240000486373901, 0.0, 0.0, 0.0, 0.0, 0.0, 1.707110495017133E9, 0.0, 2024-02-04 21:21:35.017
26.0, 459.97777535021305, -30.96637163311243, 15.954413210973144, 19.795290465466678, -0.04800000227987766, 0.0, 1.0240000486373901, 0.0, 0.0, 0.0, 0.0, 0.0, 1.707110495020363E9, 0.0, 2024-02-04 21:21:35.020
26.0, 495.1253551337868, 72.39511339226738, -8.84860329516232, 125.466163713485, -0.04800000227987766, 0.0, 1.0240000486373901, 0.0, 0.0, 0.0, 0.0, 0.0, 1.707110495020363E9, 0.0, 2024-02-04 21:21:35.020
27.0, 397.0876176953316, 240.29044210305437, 95.55444386787713, 232.371203946881, -0.04800000227987766, 0.0, 1.0240000486373901, 0.0, 0.0, 0.0, 0.0, 0.0, 1.70711049503212E9, 0.0, 2024-02-04 21:21:35.032
27.0, 235.2453170628287, 36.20597147103399, 59.19139659870416, 71.71258165035397, -0.04800000227987766, 0.0, 1.0240000486373901, 0.0, 0.0, 0.0, 0.0, 0.0, 1.70711049503212E9, 0.0, 2024-02-04 21:21:35.032
28.0, 148.46280854102224, 178.30908013740554, -44.65814537089318, 40.903285815380514, -0.04800000227987766, 0.0, 1.0240000486373901, 0.0, 0.0, 0.0, 0.0, 0.0, 1.707110495035368E9, 0.0, 2024-02-04 21:21:35.035
28.0, 51.711596687324345, 112.21008832054213, 64.74514803290367, 231.4437087578699, -0.04800000227987766, 0.0, 1.0240000486373901, 0.0, 0.0, 0.0, 0.0, 0.0, 1.707110495035368E9, 0.0, 2024-02-04 21:21:35.035
29.0, 21.77743744198233, 8.242739502340555, 96.2687647594139, 132.37001903168857, -0.04800000227987766, 0.0, 1.0240000486373901, 0.0, 0.0, 0.0, 0.0, 0.0, 1.707110495046273E9, 0.0, 2024-02-04 21:21:35.046
29.0, 107.54830302577466, -168.87892239913344, -21.38848784659058, 18.0450172862038, -0.04800000227987766, 0.0, 1.0240000486373901, 0.0, 0.0, 0.0, 0.0, 0.0, 1.707110495046273E9, 0.0, 2024-02-04 21:21:35.046
30.0, 278.4561211508699, 38.84073098981753, 28.763570559211075, 189.1230008592829, -0.04800000227987766, 0.0, 1.0240000486373901, 0.0, 0.0, 0.0, 0.0, 0.0, 1.707110495061788E9, 0.0, 2024-02-04 21:21:35.061
30.0, 367.9537970405072, -106.37023453973234, 119.95729107875377, 211.27816819678992, -0.04800000227987766, 0.0, 1.0240000486373901, 0.0, 0.0, 0.0, 0.0, 0.0, 1.707110495061788E9, 0.0, 2024-02-04 21:21:35.061
31.0, 461.4101570332423, -31.673212724737823, 11.141161968000233, 21.32864944729954, -0.04800000227987766, 0.01600000075995922, 1.0240000486373901, 0.0, 0.0, 0.0, 0.0, 0.0, 1.707110495064788E9, 0.0, 2024-02-04 21:21:35.064
31.0, 490.8207302847877, 69.93799912137911, -7.034751816652715, 126.27772200386971, -0.04800000227987766, 0.01600000075995922, 1.0240000486373901, 0.0, 0.0, 0.0, 0.0, 0.0, 1.707110495064788E9, 0.0, 2024-02-04 21:21:35.064
32.0, 395.5617385134101, 246.00500923534855, 97.32715644687414, 230.46011506952345, -0.04800000227987766, 0.01600000075995922, 1.0240000486373901, 0.0, 0.0, 0.0, 0.0, 0.0, 1.707110495076243E9, 0.0, 2024-02-04 21:21:35.076
32.0, 234.3888799729757, 40.880846415646374, 55.54125424195081, 65.84093871992081, -0.04800000227987766, 0.01600000075995922, 1.0240000486373901, 0.0, 0.0, 0.0, 0.0, 0.0, 1.707110495076243E9, 0.0, 2024-02-04 21:21:35.076
33.0, 147.91304324753582, 177.79297394352034, -42.25338969938457, 45.33880716282874, -0.04800000227987766, 0.01600000075995922, 1.0240000486373901, 0.0, 0.0, 0.0, 0.0, 0.0, 1.707110495092172E9, 0.0, 2024-02-04 21:21:35.092
33.0, 52.63161207642406, 113.08896481012926, 66.7347748093307, 229.41668298188597, -0.04800000227987766, 0.01600000075995922, 1.0240000486373901, 0.0, 0.0, 0.0, 0.0, 0.0, 1.707110495092172E9, 0.0, 2024-02-04 21:21:35.092
34.0, 32.14818001911044, 8.796244695782661, 90.84964972361922, 132.40367813128978, -0.04800000227987766, 0.01600000075995922, 1.0240000486373901, 0.0, 0.0, 0.0, 0.0, 0.0, 1.707110495095437E9, 0.0, 2024-02-04 21:21:35.095
34.0, 108.1242476189509, -171.59408976696432, -18.650881079025567, 18.007618286646903, -0.04800000227987766, 0.01600000075995922, 1.0240000486373901, 0.0, 0.0, 0.0, 0.0, 0.0, 1.707110495095437E9, 0.0, 2024-02-04 21:21:35.095
35.0, 270.78932624170557, 38.41438239486888, 23.31453632377088, 187.0174371842295, -0.04800000227987766, 0.01600000075995922, 1.0240000486373901, 0.0, 0.0, 0.0, 0.0, 0.0, 1.707110495106405E9, 0.0, 2024-02-04 21:21:35.106
35.0, 363.89226568862796, -104.83687555789948, 117.95644460245967, 206.621992751956, -0.04800000227987766, 0.01600000075995922, 1.0240000486373901, 0.0, 0.0, 0.0, 0.0, 0.0, 1.707110495106405E9, 0.0, 2024-02-04 21:21:35.106
36.0, 454.1734506189823, -38.30405534617603, 13.852589435875416, 22.97794532775879, -0.04800000227987766, 0.01600000075995922, 1.0240000486373901, 0.0, 0.0, 0.0, 0.0, 0.0, 1.707110495121796E9, 0.0, 2024-02-04 21:21:35.121
36.0, 480.95861410163343, 65.58849547291175, -5.520092334598303, 129.0639474708587, -0.04800000227987766, 0.01600000075995922, 1.0240000486373901, 0.0, 0.0, 0.0, 0.0, 0.0, 1.707110495121796E9, 0.0, 2024-02-04 21:21:35.121
37.0, 390.509133673273, 248.16293150978163, 106.5684492373839, 235.7745129065588, -0.04800000227987766, 0.01600000075995922, 1.0240000486373901, 0.0, 0.0, 0.0, 0.0, 0.0, 1.707110495124689E9, 0.0, 2024-02-04 21:21:35.124
37.0, 230.69011891679838, 40.55173521954566, 58.83984600286931, 71.42460935376585, -0.04800000227987766, 0.01600000075995922, 1.0240000486373901, 0.0, 0.0, 0.0, 0.0, 0.0, 1.707110495124689E9, 0.0, 2024-02-04 21:21:35.124
38.0, 138.55581355839968, 172.24296240927652, -37.74681025277823, 46.879645944572985, -0.04800000227987766, 0.01600000075995922, 1.0240000486373901, 0.0, 0.0, 0.0, 0.0, 0.0, 1.707110495135994E9, 0.0, 2024-02-04 21:21:35.135
38.0, 43.99244317878038, 115.24688708456233, 71.91453624796122, 232.9995071394369, -0.04800000227987766, 0.01600000075995922, 1.0240000486373901, 0.0, 0.0, 0.0, 0.0, 0.0, 1.707110495135994E9, 0.0, 2024-02-04 21:21:35.135
39.0, 27.103054978884757, 13.400061541236937, 92.32317030616105, 133.619145616889, -0.04800000227987766, 0.01600000075995922, 1.0240000486373901, 0.0, 0.0, 0.0, 0.0, 0.0, 1.707110495169033E9, 0.0, 2024-02-04 21:21:35.169
39.0, 104.15621376596391, -171.7100266655907, -16.88938819989562, 21.523124244995415, -0.04800000227987766, 0.01600000075995922, 1.0240000486373901, 0.0, 0.0, 0.0, 0.0, 0.0, 1.707110495169033E9, 0.0, 2024-02-04 21:21:35.169
40.0, 269.71971485437825, 36.93338201241568, 25.958645592443645, 193.45006510801613, -0.04800000227987766, 0.01600000075995922, 1.0240000486373901, 0.0, 0.0, 0.0, 0.0, 0.0, 1.70711049517228E9, 0.0, 2024-02-04 21:21:35.172
40.0, 362.721677002497, -101.71779899485409, 118.77548269275576, 211.1023928988725, -0.04800000227987766, 0.01600000075995922, 1.0240000486373901, 0.0, 0.0, 0.0, 0.0, 0.0, 1.70711049517228E9, 0.0, 2024-02-04 21:21:35.172
41.0, 447.53138829767704, -34.754890288226306, 15.827256612479687, 25.947425892576575, -0.04800000227987766, 0.01600000075995922, 1.0240000486373901, 0.0, 0.0, 0.0, 0.0, 0.0, 1.707110495175465E9, 0.0, 2024-02-04 21:21:35.175
41.0, 474.50728667806834, 58.763178053777665, -3.6725817564874887, 131.34154654387385, -0.04800000227987766, 0.01600000075995922, 1.0240000486373901, 0.0, 0.0, 0.0, 0.0, 0.0, 1.707110495175465E9, 0.0, 2024-02-04 21:21:35.175
42.0, 383.6987758539617, 250.62752558058128, 100.61826840788126, 231.42500925809145, -0.04800000227987766, 0.01600000075995922, 1.0240000486373901, 0.0, 0.0, 0.0, 0.0, 0.0, 1.707110495178404E9, 0.0, 2024-02-04 21:21:35.178
42.0, 220.74572493461892, 45.15555206499994, 56.45752973109484, 69.37140427809209, -0.04800000227987766, 0.01600000075995922, 1.0240000486373901, 0.0, 0.0, 0.0, 0.0, 0.0, 1.707110495178404E9, 0.0, 2024-02-04 21:21:35.178
43.0, 128.0990532822907, 173.0956595991738, -39.96083102654666, 52.870965673588216, -0.04800000227987766, 0.01600000075995922, 1.0240000486373901, 0.0, 0.0, 0.0, 0.0, 0.0, 1.707110495182014E9, 0.0, 2024-02-04 21:21:35.182
43.0, 35.31587528157979, 121.64959580870345, 69.37888407800347, 231.69428205490112, -0.04800000227987766, 0.01600000075995922, 1.0240000486373901, 0.0, 0.0, 0.0, 0.0, 0.0, 1.707110495182014E9, 0.0, 2024-02-04 21:21:35.182
44.0, 26.085802190937102, 18.987472075037658, 88.66180824954063, 132.7701883269474, -0.04800000227987766, 0.01600000075995922, 1.0240000486373901, 0.0, 0.0, 0.0, 0.0, 0.0, 1.707110495196208E9, 0.0, 2024-02-04 21:21:35.196
44.0, 113.06091556046158, -166.0066792331636, -21.859715241007507, 14.623008826747537, -0.04800000227987766, 0.01600000075995922, 1.0240000486373901, 0.0, 0.0, 0.0, 0.0, 0.0, 1.707110495196208E9, 0.0, 2024-02-04 21:21:35.196
45.0, 282.0389453084208, 48.40365517651662, 23.243478224612772, 185.80570959858596, -0.04800000227987766, 0.01600000075995922, 1.0240000486373901, 0.0, 0.0, 0.0, 0.0, 0.0, 1.707110495211794E9, 0.0, 2024-02-04 21:21:35.211
45.0, 385.8828774280846, -83.77375900745392, 107.95221222098917, 196.47564417216927, -0.04800000227987766, 0.01600000075995922, 1.0240000486373901, 0.0, 0.0, 0.0, 0.0, 0.0, 1.707110495211794E9, 0.0, 2024-02-04 21:21:35.211
46.0, 483.5279253711924, -19.140807973220944, -3.429488259367645, 6.148395527154207, -0.04800000227987766, 0.01600000075995922, 1.0240000486373901, 0.0, 0.0, 0.0, 0.0, 0.0, 1.707110495214786E9, 0.0, 2024-02-04 21:21:35.214
46.0, 510.38040705304593, 76.28834924614057, -24.387887611053884, 110.83567508682609, -0.04800000227987766, 0.01600000075995922, 1.0240000486373901, 0.0, 0.0, 0.0, 0.0, 0.0, 1.707110495214786E9, 0.0, 2024-02-04 21:21:35.214
47.0, 424.8675945661962, 267.9918810748495, 79.45417455863208, 207.14183884579688, -0.04800000227987766, 0.01600000075995922, 1.0240000486373901, 0.0, 0.0, 0.0, 0.0, 0.0, 1.707110495226032E9, 0.0, 2024-02-04 21:21:35.226
47.0, 267.98440127493814, 56.46874943096191, 33.81243549939245, 43.50999608449638, -0.04800000227987766, 0.01600000075995922, 1.0240000486373901, 0.0, 0.0, 0.0, 0.0, 0.0, 1.707110495226032E9, 0.0, 2024-02-04 21:21:35.226
48.0, 177.6751670949161, 186.50694084027782, -60.49288178328425, 25.32286259997636, -0.04800000227987766, 0.01600000075995922, 1.0240000486373901, 0.0, 0.0, 0.0, 0.0, 0.0, 1.707110495242305E9, 0.0, 2024-02-04 21:21:35.242
48.0, 73.82562512531877, 130.54681780328974, 50.81776059791446, 210.5862867049873, -0.04800000227987766, 0.01600000075995922, 1.0240000486373901, 0.0, 0.0, 0.0, 0.0, 0.0, 1.707110495242305E9, 0.0, 2024-02-04 21:21:35.242
49.0, 65.84093871992081, 22.271104236133397, 71.66770285088569, 107.64928032457829, -0.04800000227987766, 0.01600000075995922, 1.0240000486373901, 0.0, 0.0, 0.0, 0.0, 0.0, 1.707110495245443E9, 0.0, 2024-02-04 21:21:35.245
49.0, 145.5494264755398, -164.3349439529702, -42.12623310089111, -5.370496336370707, -0.04800000227987766, 0.01600000075995922, 1.0240000486373901, 0.0, 0.0, 0.0, 0.0, 0.0, 1.707110495245443E9, 0.0, 2024-02-04 21:21:35.245
50.0, 302.51489756582305, 49.914574758615345, 9.136575591750443, 168.94998049829155, -0.04800000227987766, 0.01600000075995922, 1.0240000486373901, 0.0, 0.0, 0.0, 0.0, 0.0, 1.707110495256385E9, 0.0, 2024-02-04 21:21:35.256
50.0, 399.4961132667959, -87.79415145982057, 100.37143501080573, 182.1555672418326, -0.04800000227987766, 0.01600000075995922, 1.0240000486373901, 0.0, 0.0, 0.0, 0.0, 0.0, 1.707110495256385E9, 0.0, 2024-02-04 21:21:35.256
51.0, 502.3807610478252, -27.207772177644074, -7.861269706860185, -1.5744978813454509, -0.04800000227987766, 0.01600000075995922, 1.0240000486373901, 0.0, 0.0, 0.0, 0.0, 0.0, 1.707110495271931E9, 0.0, 2024-02-04 21:21:35.271
51.0, 522.3780061108992, 75.2785762581043, -25.588395496830344, 112.17829917091876, -0.04800000227987766, 0.01600000075995922, 1.0240000486373901, 0.0, 0.0, 0.0, 0.0, 0.0, 1.707110495271931E9, 0.0, 2024-02-04 21:21:35.271
52.0, 426.2363979499787, 256.41315081203356, 80.62102334480733, 204.53512857668102, -0.06400000303983688, 0.01600000075995922, 1.0240000486373901, 0.0, 0.0, 0.0, 0.0, 0.0, 1.707110495274795E9, 0.0, 2024-02-04 21:21:35.274
52.0, 279.9969599326141, 52.63535197637975, 36.72955746483058, 41.39695260953158, -0.06400000303983688, 0.01600000075995922, 1.0240000486373901, 0.0, 0.0, 0.0, 0.0, 0.0, 1.707110495274795E9, 0.0, 2024-02-04 21:21:35.274
53.0, 191.48661763127893, 181.71612899703905, -62.71064245700836, 22.211265836842358, -0.06400000303983688, 0.01600000075995922, 1.0240000486373901, 0.0, 0.0, 0.0, 0.0, 0.0, 1.707110495286015E9, 0.0, 2024-02-04 21:21:35.286
53.0, 77.25137348473072, 124.6714349729009, 44.104640177451074, 204.30325477942824, -0.06400000303983688, 0.01600000075995922, 1.0240000486373901, 0.0, 0.0, 0.0, 0.0, 0.0, 1.707110495286015E9, 0.0, 2024-02-04 21:21:35.286
54.0, 76.36127729527652, 20.95091955177486, 68.53740658797324, 103.4942514738068, -0.06400000303983688, 0.01600000075995922, 1.0240000486373901, 0.0, 0.0, 0.0, 0.0, 0.0, 1.707110495318429E9, 0.0, 2024-02-04 21:21:35.318
54.0, 170.1168292844668, -169.20055379532278, -45.02839546650648, -10.165048079565167, -0.06400000303983688, 0.01600000075995922, 1.0240000486373901, 0.0, 0.0, 0.0, 0.0, 0.0, 1.707110495318429E9, 0.0, 2024-02-04 21:21:35.318
55.0, 309.5795685821213, 48.21666017873213, 9.727479784749448, 170.13552878424525, -0.06400000303983688, 0.01600000075995922, 1.0240000486373901, 0.0, 0.0, 0.0, 0.0, 0.0, 1.707110495321566E9, 0.0, 2024-02-04 21:21:35.321
55.0, 410.87288893200457, -97.23739884793758, 94.59328957926482, 178.6064021838829, -0.06400000303983688, 0.01600000075995922, 1.0240000486373901, 0.0, 0.0, 0.0, 0.0, 0.0, 1.707110495321566E9, 0.0, 2024-02-04 21:21:35.321
56.0, 511.5360361393541, -32.57452861405909, -11.193520567379892, -5.987579829059541, -0.06400000303983688, 0.01600000075995922, 1.0240000486373901, 0.0, 0.0, 0.0, 0.0, 0.0, 1.707110495325127E9, 0.0, 2024-02-04 21:21:35.325
56.0, 524.2516959886998, 64.68343968363479, -27.690219271928072, 107.57822222542018, -0.06400000303983688, 0.01600000075995922, 1.0240000486373901, 0.0, 0.0, 0.0, 0.0, 0.0, 1.707110495325127E9, 0.0, 2024-02-04 21:21:35.325
57.0, 421.51290430594236, 253.103339351248, 84.8171910950914, 212.845186278224, -0.06400000303983688, 0.01600000075995922, 1.0240000486373901, 0.0, 0.0, 0.0, 0.0, 0.0, 1.707110495327782E9, 0.0, 2024-02-04 21:21:35.327
57.0, 274.0430392031558, 46.430857949890196, 37.197044959291816, 45.40612536203116, -0.06400000303983688, 0.01600000075995922, 1.0240000486373901, 0.0, 0.0, 0.0, 0.0, 0.0, 1.707110495327782E9, 0.0, 2024-02-04 21:21:35.327
58.0, 180.6446476597339, 172.93858380103484, -54.161231158301234, 30.371727540157735, -0.06400000303983688, 0.01600000075995922, 1.0240000486373901, 0.0, 0.0, 0.0, 0.0, 0.0, 1.707110495331386E9, 0.0, 2024-02-04 21:21:35.331
58.0, 67.42291640117764, 124.08427067985758, 55.40287794359028, 213.12941867485642, -0.06400000303983688, 0.01600000075995922, 1.0240000486373901, 0.0, 0.0, 0.0, 0.0, 0.0, 1.707110495331386E9, 0.0, 2024-02-04 21:21:35.331
59.0, 65.96435541845858, 20.715305854566395, 86.31315107736737, 112.00626377295703, -0.06400000303983688, 0.01600000075995922, 1.0240000486373901, 0.0, 0.0, 0.0, 0.0, 0.0, 1.70711049534628E9, 0.0, 2024-02-04 21:21:35.346
59.0, 154.0389993749559, -169.35762959346175, -38.67430544178933, 0.684401691891253, -0.06400000303983688, 0.01600000075995922, 1.0240000486373901, 0.0, 0.0, 0.0, 0.0, 0.0, 1.70711049534628E9, 0.0, 2024-02-04 21:21:35.346
60.0, 300.39811419090256, 41.406302359420806, 10.669934573583305, 173.1611078483984, -0.06400000303983688, 0.01600000075995922, 1.0240000486373901, 0.0, 0.0, 0.0, 0.0, 0.0, 1.707110495361941E9, 0.0, 2024-02-04 21:21:35.361
60.0, 396.9006226975471, -91.80706411227584, 107.92229302134365, 191.22108473442495, -0.06400000303983688, 0.01600000075995922, 1.0240000486373901, 0.0, 0.0, 0.0, 0.0, 0.0, 1.707110495361941E9, 0.0, 2024-02-04 21:21:35.361
61.0, 498.59224239271134, -35.30091568175703, -6.612143121659756, 4.241046549752355, -0.06400000303983688, 0.01600000075995922, 1.0240000486373901, 0.0, 0.0, 0.0, 0.0, 0.0, 1.707110495364807E9, 0.0, 2024-02-04 21:21:35.364
61.0, 507.5044239871204, 64.57124268496409, -17.914120787754655, 112.71684476453811, -0.06400000303983688, 0.01600000075995922, 1.0240000486373901, 0.0, 0.0, 0.0, 0.0, 0.0, 1.707110495364807E9, 0.0, 2024-02-04 21:21:35.364
62.0, 407.87722906749696, 251.74949556728825, 91.64998831413686, 220.87101158313453, -0.06400000303983688, 0.01600000075995922, 1.0240000486373901, 0.0, 0.0, 0.0, 0.0, 0.0, 1.707110495376041E9, 0.0, 2024-02-04 21:21:35.376
62.0, 255.5828930218704, 43.53617538418621, 44.912458567880094, 55.11116574704647, -0.06400000303983688, 0.01600000075995922, 1.0240000486373901, 0.0, 0.0, 0.0, 0.0, 0.0, 1.707110495376041E9, 0.0, 2024-02-04 21:21:35.376
63.0, 159.68250840809196, 172.19808360980824, -49.0974066182971, 32.821362011134624, -0.06400000303983688, 0.01600000075995922, 1.0240000486373901, 0.0, 0.0, 0.0, 0.0, 0.0, 1.707110495391796E9, 0.0, 2024-02-04 21:21:35.391
63.0, 37.69445165339857, 118.59783744486049, 63.791473544202745, 224.04618664551526, -0.06400000303983688, 0.01600000075995922, 1.0240000486373901, 0.0, 0.0, 0.0, 0.0, 0.0, 1.707110495391796E9, 0.0, 2024-02-04 21:21:35.391
64.0, 30.734497835859656, 13.388841841369867, 85.83070398308337, 126.67415139917284, -0.06400000303983688, 0.01600000075995922, 1.0240000486373901, 0.0, 0.0, 0.0, 0.0, 0.0, 1.707110495395075E9, 0.0, 2024-02-04 21:21:35.395
64.0, 123.25588283967227, -176.6803537067026, -29.881800645962358, 9.914474782533944, -0.06400000303983688, 0.01600000075995922, 1.0240000486373901, 0.0, 0.0, 0.0, 0.0, 0.0, 1.707110495395075E9, 0.0, 2024-02-04 21:21:35.395
65.0, 266.83251208858564, 39.805625178385526, 24.705779107287526, 187.58590197749436, -0.06400000303983688, 0.01600000075995922, 1.0240000486373901, 0.0, 0.0, 0.0, 0.0, 0.0, 1.707110495406483E9, 0.0, 2024-02-04 21:21:35.406
65.0, 361.6109267156571, -95.6367216669023, 119.65435918234289, 206.03856835886836, -0.06400000303983688, 0.01600000075995922, 1.0240000486373901, 0.0, 0.0, 0.0, 0.0, 0.0, 1.707110495406483E9, 0.0, 2024-02-04 21:21:35.406
66.0, 472.4540816023946, -36.804355463944376, 7.808911107480526, 9.144055391661823, -0.06400000303983688, 0.01600000075995922, 1.0240000486373901, 0.0, 0.0, 0.0, 0.0, 0.0, 1.707110495422188E9, 0.0, 2024-02-04 21:21:35.422
66.0, 483.57654407061636, 66.92737965704873, -9.63024238590151, 126.48341650143266, -0.06400000303983688, 0.01600000075995922, 1.0240000486373901, 0.0, 0.0, 0.0, 0.0, 0.0, 1.707110495422188E9, 0.0, 2024-02-04 21:21:35.422
67.0, 378.90422411076725, 251.07631357526407, 100.15078091342002, 230.6994686666876, -0.06400000303983688, 0.01600000075995922, 1.0240000486373901, 0.0, 0.0, 0.0, 0.0, 0.0, 1.707110495425468E9, 0.0, 2024-02-04 21:21:35.425
67.0, 240.7579295975156, 45.234089964069426, 49.37789911497384, 59.57286639418453, -0.06400000303983688, 0.01600000075995922, 1.0240000486373901, 0.0, 0.0, 0.0, 0.0, 0.0, 1.707110495425468E9, 0.0, 2024-02-04 21:21:35.425
68.0, 148.19353574421257, 174.65145798074082, -41.90183910354972, 44.69554437045008, -0.06400000303983688, 0.01600000075995922, 1.0240000486373901, 0.0, 0.0, 0.0, 0.0, 0.0, 1.707110495436372E9, 0.0, 2024-02-04 21:21:35.436
68.0, 25.244324700906873, 122.14700250281021, 69.57709877565503, 232.3001458477229, -0.06400000303983688, 0.01600000075995922, 1.0240000486373901, 0.0, 0.0, 0.0, 0.0, 0.0, 1.707110495436372E9, 0.0, 2024-02-04 21:21:35.436
69.0, 30.895313533954322, 20.655467455275357, 88.16814145538956, 130.38787205517292, -0.06400000303983688, 0.01600000075995922, 1.0240000486373901, 0.0, 0.0, 0.0, 0.0, 0.0, 1.707110495451796E9, 0.0, 2024-02-04 21:21:35.451
69.0, 119.40004598535597, -166.98279312159866, -29.702285448089242, 5.965140429325402, -0.06400000303983688, 0.01600000075995922, 1.0240000486373901, 0.0, 0.0, 0.0, 0.0, 0.0, 1.707110495451796E9, 0.0, 2024-02-04 21:21:35.451
70.0, 259.16571717942134, 43.56048473389819, 27.073135779239237, 192.36549412086606, -0.06400000303983688, 0.01600000075995922, 1.0240000486373901, 0.0, 0.0, 0.0, 0.0, 0.0, 1.707110495454691E9, 0.0, 2024-02-04 21:21:35.454
70.0, 357.9383449591696, -88.21676015481353, 117.32440150994807, 207.97209663596004, -0.06400000303983688, 0.01600000075995922, 1.0240000486373901, 0.0, 0.0, 0.0, 0.0, 0.0, 1.707110495454691E9, 0.0, 2024-02-04 21:21:35.454
71.0, 472.24090730492026, -28.875767557881773, 5.64724893309176, 14.417314329184592, -0.06400000303983688, 0.01600000075995922, 1.0240000486373901, 0.0, 0.0, 0.0, 0.0, 0.0, 1.707110495466799E9, 0.0, 2024-02-04 21:21:35.466
71.0, 473.83410468604416, 70.66353971278295, -9.566664086654782, 127.63904558774084, -0.06400000303983688, 0.01600000075995922, 1.0240000486373901, 0.0, 0.0, 0.0, 0.0, 0.0, 1.707110495466799E9, 0.0, 2024-02-04 21:21:35.466
72.0, 373.8030005712062, 253.11455905111507, 105.31558275222778, 233.47447443380952, -0.04800000227987766, 0.01600000075995922, 1.0240000486373901, 0.0, 0.0, 0.0, 0.0, 0.0, 1.707110495482108E9, 0.0, 2024-02-04 21:21:35.482
72.0, 240.89256599592045, 52.83356667403132, 55.50011534243822, 64.50953433569521, -0.04800000227987766, 0.01600000075995922, 1.0240000486373901, 0.0, 0.0, 0.0, 0.0, 0.0, 1.707110495482108E9, 0.0, 2024-02-04 21:21:35.482
73.0, 141.66741032153368, 178.13330483948812, -45.55946126021445, 40.77238931693137, -0.04800000227987766, 0.01600000075995922, 1.0240000486373901, 0.0, 0.0, 0.0, 0.0, 0.0, 1.707110495485374E9, 0.0, 2024-02-04 21:21:35.485
73.0, 21.79987684171647, 124.34980357671157, 74.61848391592503, 234.7049015192315, -0.04800000227987766, 0.01600000075995922, 1.0240000486373901, 0.0, 0.0, 0.0, 0.0, 0.0, 1.707110495485374E9, 0.0, 2024-02-04 21:21:35.485
74.0, 25.958645592443645, 21.32490954734385, 90.84964972361922, 129.75582896266133, -0.04800000227987766, 0.01600000075995922, 1.0240000486373901, 0.0, 0.0, 0.0, 0.0, 0.0, 1.707110495496226E9, 0.0, 2024-02-04 21:21:35.496
74.0, 124.97249691933393, -167.79809131193906, -30.199692142196, 6.275552125647664, -0.04800000227987766, 0.01600000075995922, 1.0240000486373901, 0.0, 0.0, 0.0, 0.0, 0.0, 1.707110495496226E9, 0.0, 2024-02-04 21:21:35.496
75.0, 257.4042243002914, 40.209534373600036, 30.5699422378093, 187.62704087700695, -0.04800000227987766, 0.01600000075995922, 1.0240000486373901, 0.0, 0.0, 0.0, 0.0, 0.0, 1.707110495511958E9, 0.0, 2024-02-04 21:21:35.511
75.0, 358.8359209485352, -94.49605218041688, 122.28350885119289, 206.8426468493417, -0.04800000227987766, 0.01600000075995922, 1.0240000486373901, 0.0, 0.0, 0.0, 0.0, 0.0, 1.707110495511958E9, 0.0, 2024-02-04 21:21:35.511
76.0, 481.9983062893152, -31.482477826997638, 6.683201220817864, 9.215113490819931, -0.04800000227987766, 0.01600000075995922, 1.0240000486373901, 0.0, 0.0, 0.0, 0.0, 0.0, 1.707110495515338E9, 0.0, 2024-02-04 21:21:35.515
76.0, 477.6039238413796, 64.6423007841222, -8.01834550499916, 128.1701113814488, -0.04800000227987766, 0.01600000075995922, 1.0240000486373901, 0.0, 0.0, 0.0, 0.0, 0.0, 1.707110495515338E9, 0.0, 2024-02-04 21:21:35.515
77.0, 369.44975702278316, 248.07317391084507, 100.33777591120452, 238.58691767323762, -0.04800000227987766, 0.01600000075995922, 1.0240000486373901, 0.0, 0.0, 0.0, 0.0, 0.0, 1.707110495526364E9, 0.0, 2024-02-04 21:21:35.526
77.0, 242.29876837925985, 41.281015710905194, 57.23542892187834, 64.92466323077679, -0.04800000227987766, 0.01600000075995922, 1.0240000486373901, 0.0, 0.0, 0.0, 0.0, 0.0, 1.707110495526364E9, 0.0, 2024-02-04 21:21:35.526
78.0, 146.6265176627785, 170.96765652438626, -39.75139662902802, 47.18631774093956, -0.04800000227987766, 0.01600000075995922, 1.0240000486373901, 0.0, 0.0, 0.0, 0.0, 0.0, 1.707110495542109E9, 0.0, 2024-02-04 21:21:35.542
78.0, 10.972866469994187, 115.66201597964391, 75.67687560338527, 240.25117315351963, -0.04800000227987766, 0.01600000075995922, 1.0240000486373901, 0.0, 0.0, 0.0, 0.0, 0.0, 1.707110495542109E9, 0.0, 2024-02-04 21:21:35.542
79.0, 19.843909164890647, 12.88769524730742, 98.23969203606248, 135.8780451901257, -0.04800000227987766, 0.01600000075995922, 1.0240000486373901, 0.0, 0.0, 0.0, 0.0, 0.0, 1.707110495545372E9, 0.0, 2024-02-04 21:21:35.545
79.0, 115.57038843072951, -174.13348183687776, -23.187379725277424, 11.836783359758556, -0.04800000227987766, 0.01600000075995922, 1.0240000486373901, 0.0, 0.0, 0.0, 0.0, 0.0, 1.707110495545372E9, 0.0, 2024-02-04 21:21:35.545
80.0, 237.55283533548936, 36.622970316093415, 34.34724119305611, 200.55961492378265, -0.04800000227987766, 0.01600000075995922, 1.0240000486373901, 0.0, 0.0, 0.0, 0.0, 0.0, 1.707110495556402E9, 0.0, 2024-02-04 21:21:35.556
80.0, 336.4114808142185, -95.65168126672506, 130.14851845800877, 216.75338173191994, -0.04800000227987766, 0.01600000075995922, 1.0240000486373901, 0.0, 0.0, 0.0, 0.0, 0.0, 1.707110495556402E9, 0.0, 2024-02-04 21:21:35.556
81.0, 467.53985306061804, -32.70916501246393, 12.573543651029468, 20.307656759396195, -0.04800000227987766, 0.01600000075995922, 1.0240000486373901, 0.0, 0.0, 0.0, 0.0, 0.0, 1.707110495571799E9, 0.0, 2024-02-04 21:21:35.571
81.0, 462.43114972114563, 69.62384752510116, -6.335390524938703, 132.6579913282767, -0.04800000227987766, 0.01600000075995922, 1.0240000486373901, 0.0, 0.0, 0.0, 0.0, 0.0, 1.707110495571799E9, 0.0, 2024-02-04 21:21:35.571
82.0, 357.0968674691394, 256.57022661017254, 107.2378913294524, 244.77645209990442, -0.04800000227987766, 0.01600000075995922, 1.0240000486373901, 0.0, 0.0, 0.0, 0.0, 0.0, 1.707110495574798E9, 0.0, 2024-02-04 21:21:35.574
82.0, 247.66178491571918, 56.27427463326603, 58.40975750796497, 61.6223315699026, -0.04800000227987766, 0.01600000075995922, 1.0240000486373901, 0.0, 0.0, 0.0, 0.0, 0.0, 1.707110495574798E9, 0.0, 2024-02-04 21:21:35.574
83.0, 152.67767579108477, 175.34707937249914, -46.76744894590229, 35.80954207573086, -0.04800000227987766, 0.01600000075995922, 1.0240000486373901, 0.0, 0.0, 0.0, 0.0, 0.0, 1.707110495586896E9, 0.0, 2024-02-04 21:21:35.586
83.0, 20.5657098563388, 127.24822604237124, 73.97148122359067, 232.8873101407662, -0.04800000227987766, 0.01600000075995922, 1.0240000486373901, 0.0, 0.0, 0.0, 0.0, 0.0, 1.707110495586896E9, 0.0, 2024-02-04 21:21:35.586
84.0, 38.96975753828883, 21.179053449071944, 88.4149748524651, 123.85426683258265, -0.04800000227987766, 0.01600000075995922, 1.0240000486373901, 0.0, 0.0, 0.0, 0.0, 0.0, 1.707110495602265E9, 0.0, 2024-02-04 21:21:35.602
84.0, 138.4697958594188, -165.4531740397215, -33.229011106304824, -3.1976144621148705, -0.04800000227987766, 0.01600000075995922, 1.0240000486373901, 0.0, 0.0, 0.0, 0.0, 0.0, 1.707110495602265E9, 0.0, 2024-02-04 21:21:35.602
85.0, 261.6938895494677, 46.45516729960218, 21.29499034769833, 188.73031136393547, -0.04800000227987766, 0.01600000075995922, 1.0240000486373901, 0.0, 0.0, 0.0, 0.0, 0.0, 1.707110495605488E9, 0.0, 2024-02-04 21:21:35.605
85.0, 365.2087104730308, -88.59075015038252, 119.81517488043755, 199.23195043951273, -0.04800000227987766, 0.01600000075995922, 1.0240000486373901, 0.0, 0.0, 0.0, 0.0, 0.0, 1.707110495605488E9, 0.0, 2024-02-04 21:21:35.605
86.0, 487.1668480280787, -35.0914812842384, 0.5684647932648659, 5.804324731230736, -0.04800000227987766, 0.01600000075995922, 1.0240000486373901, 0.0, 0.0, 0.0, 0.0, 0.0, 1.707110495616037E9, 0.0, 2024-02-04 21:21:35.616
86.0, 468.86751754488796, 63.68488639546558, -12.812897248193622, 128.75727567449212, -0.04800000227987766, 0.01600000075995922, 1.0240000486373901, 0.0, 0.0, 0.0, 0.0, 0.0, 1.707110495616037E9, 0.0, 2024-02-04 21:21:35.616
87.0, 365.59392016846687, 248.45464370632544, 103.11278167832643, 234.45058832224458, -0.04800000227987766, 0.01600000075995922, 1.0240000486373901, 0.0, 0.0, 0.0, 0.0, 0.0, 1.707110495631817E9, 0.0, 2024-02-04 21:21:35.631
87.0, 242.48202347708866, 46.19150435272604, 50.78410149831325, 57.16063092276454, -0.04800000227987766, 0.01600000075995922, 1.0240000486373901, 0.0, 0.0, 0.0, 0.0, 0.0, 1.707110495631817E9, 0.0, 2024-02-04 21:21:35.631
88.0, 139.46834914758801, 172.10832601087168, -42.892912591807544, 43.46885718498379, -0.04800000227987766, 0.01600000075995922, 1.0240000486373901, 0.0, 0.0, 0.0, 0.0, 0.0, 1.707110495634795E9, 0.0, 2024-02-04 21:21:35.634
88.0, 1.9784070765599608, 123.26523258956149, 77.74878017883748, 238.69911467190832, -0.04800000227987766, 0.01600000075995922, 1.0240000486373901, 0.0, 0.0, 0.0, 0.0, 0.0, 1.707110495634795E9, 0.0, 2024-02-04 21:21:35.634
89.0, 25.573435897007585, 17.72712578997016, 93.35538269393146, 128.45060387812555, -0.04800000227987766, 0.01600000075995922, 1.0240000486373901, 0.0, 0.0, 0.0, 0.0, 0.0, 1.707110495646167E9, 0.0, 2024-02-04 21:21:35.646
89.0, 131.19195054564625, -164.75755264796317, -26.15312039013952, 6.283031925559044, -0.04800000227987766, 0.01600000075995922, 1.0240000486373901, 0.0, 0.0, 0.0, 0.0, 0.0, 1.707110495646167E9, 0.0, 2024-02-04 21:21:35.646
90.0, 250.48540938226506, 46.683301196899265, 27.42468637507409, 193.55478230677545, -0.04800000227987766, 0.01600000075995922, 1.0240000486373901, 0.0, 0.0, 0.0, 0.0, 0.0, 1.707110495662117E9, 0.0, 2024-02-04 21:21:35.662
90.0, 359.6811383385211, -77.94325497653335, 116.97659081406891, 205.4289646660909, -0.04800000227987766, 0.01600000075995922, 1.0240000486373901, 0.0, 0.0, 0.0, 0.0, 0.0, 1.707110495662117E9, 0.0, 2024-02-04 21:21:35.662
91.0, 500.5369903696701, -15.931973811239004, 3.463147358968854, -1.047171987593174, -0.04800000227987766, 0.01600000075995922, 1.0240000486373901, 0.0, 0.0, 0.0, 0.0, 0.0, 1.707110495665242E9, 0.0, 2024-02-04 21:21:35.665
91.0, 493.7266325503588, 82.86309336824343, -16.45929970499128, 115.59282783046365, -0.04800000227987766, 0.01600000075995922, 1.0240000486373901, 0.0, 0.0, 0.0, 0.0, 0.0, 1.707110495665242E9, 0.0, 2024-02-04 21:21:35.665
92.0, 383.6688566543162, 261.71632894920185, 97.72358584217727, 230.78174646571279, -0.04800000227987766, 0.01600000075995922, 1.0240000486373901, 0.0, 0.0, 0.0, 0.0, 0.0, 1.707110495676365E9, 0.0, 2024-02-04 21:21:35.676
92.0, 276.31315847625956, 59.778560891747475, 44.018622478470206, 43.03876869007945, -0.04800000227987766, 0.01600000075995922, 1.0240000486373901, 0.0, 0.0, 0.0, 0.0, 0.0, 1.707110495676365E9, 0.0, 2024-02-04 21:21:35.676
93.0, 180.6035087602213, 186.27132714306936, -56.71184292808175, 23.090142326429486, -0.04800000227987766, 0.01600000075995922, 1.0240000486373901, 0.0, 0.0, 0.0, 0.0, 0.0, 1.707110495691808E9, 0.0, 2024-02-04 21:21:35.691
93.0, 38.027302749454975, 129.91851461073384, 56.29297413304448, 217.46396272350103, -0.04800000227987766, 0.01600000075995922, 1.0240000486373901, 0.0, 0.0, 0.0, 0.0, 0.0, 1.707110495691808E9, 0.0, 2024-02-04 21:21:35.691
94.0, 65.93069631885737, 23.523970721289515, 79.5588917573914, 114.11556734796613, -0.04800000227987766, 0.01600000075995922, 1.0240000486373901, 0.0, 0.0, 0.0, 0.0, 0.0, 1.707110495694801E9, 0.0, 2024-02-04 21:21:35.694
94.0, 169.58202359080315, -165.79724483564496, -45.46970366127789, -14.047064233571291, -0.04800000227987766, 0.01600000075995922, 1.0240000486373901, 0.0, 0.0, 0.0, 0.0, 0.0, 1.707110495694801E9, 0.0, 2024-02-04 21:21:35.694
95.0, 280.8159980229102, 48.52707187505439, 17.461592893116176, 177.2712578997016, -0.04800000227987766, 0.01600000075995922, 1.0240000486373901, 0.0, 0.0, 0.0, 0.0, 0.0, 1.707110495706113E9, 0.0, 2024-02-04 21:21:35.706
95.0, 382.64038416650146, -88.3401768533513, 108.4234396154061, 191.37068073265254, -0.04800000227987766, 0.01600000075995922, 1.0240000486373901, 0.0, 0.0, 0.0, 0.0, 0.0, 1.707110495706113E9, 0.0, 2024-02-04 21:21:35.706
96.0, 521.1326194256544, -30.053836043924093, -15.180253920145333, -8.369896100834012, -0.04800000227987766, 0.01600000075995922, 1.0240000486373901, 0.0, 0.0, 0.0, 0.0, 0.0, 1.707110495722538E9, 0.0, 2024-02-04 21:21:35.722
96.0, 504.9463324174285, 67.89227384561673, -23.509011121466756, 114.51573664322495, -0.04800000227987766, 0.01600000075995922, 1.0240000486373901, 0.0, 0.0, 0.0, 0.0, 0.0, 1.707110495722538E9, 0.0, 2024-02-04 21:21:35.722
97.0, 388.60552459582686, 252.60593265714124, 95.08695637341589, 225.23547483142465, -0.04800000227987766, 0.01600000075995922, 1.0240000486373901, 0.0, 0.0, 0.0, 0.0, 0.0, 1.707110495725924E9, 0.0, 2024-02-04 21:21:35.725
97.0, 278.32522465242073, 44.527248872444034, 44.074720977805555, 48.38682562671602, -0.04800000227987766, 0.01600000075995922, 1.0240000486373901, 0.0, 0.0, 0.0, 0.0, 0.0, 1.707110495725924E9, 0.0, 2024-02-04 21:21:35.725
98.0, 173.47525944467634, 167.45963036594912, -50.40637160278857, 38.70796454139054, -0.04800000227987766, 0.01600000075995922, 1.0240000486373901, 0.0, 0.0, 0.0, 0.0, 0.0, 1.707110495736451E9, 0.0, 2024-02-04 21:21:35.736
98.0, 16.298484006896615, 115.02623298717663, 71.58542505186051, 233.9307422284037, -0.04800000227987766, 0.01600000075995922, 1.0240000486373901, 0.0, 0.0, 0.0, 0.0, 0.0, 1.707110495736451E9, 0.0, 2024-02-04 21:21:35.736
99.0, 36.74077716469765, 7.700454008765519, 91.46299331635237, 130.7656019506976, -0.04800000227987766, 0.01600000075995922, 1.0240000486373901, 0.0, 0.0, 0.0, 0.0, 0.0, 1.70711049575203E9, 0.0, 2024-02-04 21:21:35.752
99.0, 122.99782974272966, -193.47998430766165, -26.9384993808344, 13.044771045446396, -0.04800000227987766, 0.01600000075995922, 1.0240000486373901, 0.0, 0.0, 0.0, 0.0, 0.0, 1.70711049575203E9, 0.0, 2024-02-04 21:21:35.752
100.0, 222.00607121968642, 22.70680258097127, 37.00257016159594, 210.9939358001575, -0.04800000227987766, 0.01600000075995922, 1.0240000486373901, 0.0, 0.0, 0.0, 0.0, 0.0, 1.707110495754812E9, 0.0, 2024-02-04 21:21:35.754
100.0, 322.21482058241963, -106.48617143835872, 130.55242765322328, 221.106625280343, -0.04800000227987766, 0.01600000075995922, 1.0240000486373901, 0.0, 0.0, 0.0, 0.0, 0.0, 1.707110495754812E9, 0.0, 2024-02-04 21:21:35.754
0.0, 228.2610538955778, 167.49328946555033, -6.5392150725238025, -83.31188136292621, -0.04800000227987766, 0.01600000075995922, 1.0240000486373901, 0.0, 0.0, 0.0, 0.0, 0.0, 1.707110495766688E9, 0.0, 2024-02-04 21:21:35.766
1.0, 193.21071151085198, 262.6456940881908, -18.918283925857395, 39.461554382462054, -0.04800000227987766, 0.01600000075995922, 1.0240000486373901, 0.0, 0.0, 0.0, 0.0, 0.0, 1.707110495769736E9, 0.0, 2024-02-04 21:21:35.769
1.0, 80.62476324476302, 453.79198082350194, 108.17473626835272, 158.40907247317955, -0.04800000227987766, 0.01600000075995922, 1.0240000486373901, 0.0, 0.0, 0.0, 0.0, 0.0, 1.707110495769736E9, 0.0, 2024-02-04 21:21:35.769
2.0, -28.963655206840485, 250.18247748585418, 45.25091951387003, -25.474328548181802, -0.04800000227987766, 0.01600000075995922, 1.0240000486373901, 0.0, 0.0, 0.0, 0.0, 0.0, 1.707110495781503E9, 0.0, 2024-02-04 21:21:35.781
2.0, -145.95707557071, 370.283754712902, -49.073097268585116, -37.838437801692635, -0.04800000227987766, 0.01600000075995922, 1.0240000486373901, 0.0, 0.0, 0.0, 0.0, 0.0, 1.707110495781503E9, 0.0, 2024-02-04 21:21:35.781
3.0, -295.3623389005661, 319.84372401051223, 70.17361281858757, 155.70138490526006, -0.04800000227987766, 0.01600000075995922, 1.0240000486373901, 0.0, 0.0, 0.0, 0.0, 0.0, 1.707110495797031E9, 0.0, 2024-02-04 21:21:35.797
3.0, -262.69431278761476, 223.603008500766, 94.48670243052766, 48.96464016987011, -0.04800000227987766, 0.01600000075995922, 1.0240000486373901, 0.0, 0.0, 0.0, 0.0, 0.0, 1.707110495797031E9, 0.0, 2024-02-04 21:21:35.797
4.0, -162.21442067809403, 31.383370478171855, -29.6256174989976, -73.88359357463196, -0.04800000227987766, 0.01600000075995922, 1.0240000486373901, 0.0, 0.0, 0.0, 0.0, 0.0, 1.707110495800247E9, 0.0, 2024-02-04 21:21:35.800
4.0, -62.30112341186032, 239.5555517617613, 37.389649807009846, 119.63752963254228, -0.04800000227987766, 0.01600000075995922, 1.0240000486373901, 0.0, 0.0, 0.0, 0.0, 0.0, 1.707110495800247E9, 0.0, 2024-02-04 21:21:35.800
5.0, 52.945763672702014, 116.04722567507997, 125.58397056208923, 127.39782204059884, -0.04800000227987766, 0.01600000075995922, 1.0240000486373901, 0.0, 0.0, 0.0, 0.0, 0.0, 1.707110495811096E9, 0.0, 2024-02-04 21:21:35.811
5.0, 191.59133483003825, 172.1008462109603, 4.265355899464339, -70.72337811207399, -0.04800000227987766, 0.01600000075995922, 1.0240000486373901, 0.0, 0.0, 0.0, 0.0, 0.0, 1.707110495811096E9, 0.0, 2024-02-04 21:21:35.811
6.0, 169.54462459124625, 272.25723697431386, -7.735983058344573, 50.21002685511485, -0.04800000227987766, 0.01600000075995922, 1.0240000486373901, 0.0, 0.0, 0.0, 0.0, 0.0, 1.707110495826807E9, 0.0, 2024-02-04 21:21:35.826
6.0, 59.8795381905511, 462.3638315219432, 108.33555196644738, 155.25633681053296, -0.04800000227987766, 0.01600000075995922, 1.0240000486373901, 0.0, 0.0, 0.0, 0.0, 0.0, 1.707110495826807E9, 0.0, 2024-02-04 21:21:35.826
7.0, -29.352604802232236, 264.102385120932, 48.50837237527594, -24.976921854075044, -0.04800000227987766, 0.01600000075995922, 1.0240000486373901, 0.0, 0.0, 0.0, 0.0, 0.0, 1.707110495829792E9, 0.0, 2024-02-04 21:21:35.829
7.0, -134.78599440306425, 382.49826796818525, -50.726133049000055, -45.33319731289521, -0.04800000227987766, 0.01600000075995922, 1.0240000486373901, 0.0, 0.0, 0.0, 0.0, 0.0, 1.707110495829792E9, 0.0, 2024-02-04 21:21:35.829
8.0, -277.33228121418506, 341.3818078553304, 66.02606376772746, 147.5745823015459, -0.04800000227987766, 0.01600000075995922, 1.0240000486373901, 0.0, 0.0, 0.0, 0.0, 0.0, 1.707110495841613E9, 0.0, 2024-02-04 21:21:35.841
8.0, -233.63903003185987, 239.79303540894762, 78.64448621822521, 31.20759518025443, -0.04800000227987766, 0.01600000075995922, 1.0240000486373901, 0.0, 0.0, 0.0, 0.0, 0.0, 1.707110495841613E9, 0.0, 2024-02-04 21:21:35.841
9.0, -118.58474779501557, 46.57858399813995, -45.00034621683881, -97.73667549202219, -0.04800000227987766, 0.01600000075995922, 1.0240000486373901, 0.0, 0.0, 0.0, 0.0, 0.0, 1.70711049585726E9, 0.0, 2024-02-04 21:21:35.857
9.0, -16.550927253905684, 264.1528737703338, 13.839499786030501, 97.18691019853577, -0.04800000227987766, 0.01600000075995922, 1.0240000486373901, 0.0, 0.0, 0.0, 0.0, 0.0, 1.70711049585726E9, 0.0, 2024-02-04 21:21:35.857
10.0, 102.43959968630224, 137.98173891520128, 104.98086170619354, 102.07121954066679, -0.04800000227987766, 0.01600000075995922, 1.0240000486373901, 0.0, 0.0, 0.0, 0.0, 0.0, 1.707110495860389E9, 0.0, 2024-02-04 21:21:35.860
10.0, 250.72289302945137, 181.96296239411458, -17.373705244157463, -100.77721415599808, -0.04800000227987766, 0.01600000075995922, 1.0240000486373901, 0.0, 0.0, 0.0, 0.0, 0.0, 1.707110495860389E9, 0.0, 2024-02-04 21:21:35.860
11.0, 217.03761412855238, 276.7675563208759, -33.25332045601681, 22.531027283053845, -0.04800000227987766, 0.01600000075995922, 1.0240000486373901, 0.0, 0.0, 0.0, 0.0, 0.0, 1.707110495871498E9, 0.0, 2024-02-04 21:21:35.871
11.0, 109.28735650517046, 473.3366979919374, 86.69649082282558, 140.99609827948734, -0.04800000227987766, 0.01600000075995922, 1.0240000486373901, 0.0, 0.0, 0.0, 0.0, 0.0, 1.707110495871498E9, 0.0, 2024-02-04 21:21:35.871
12.0, 14.243408981245011, 264.8877641116269, 27.1049249288626, -47.56591758644208, -0.04800000227987766, 0.01600000075995922, 1.0240000486373901, 0.0, 0.0, 0.0, 0.0, 0.0, 1.707110495886797E9, 0.0, 2024-02-04 21:21:35.886
12.0, -98.1948132365942, 372.538914386183, -63.74472479475662, -58.83423615293577, -0.04800000227987766, 0.01600000075995922, 1.0240000486373901, 0.0, 0.0, 0.0, 0.0, 0.0, 1.707110495886797E9, 0.0, 2024-02-04 21:21:35.886
13.0, -252.51804500818253, 335.4839856252074, 55.487025692593306, 141.05967657873407, -0.04800000227987766, 0.01600000075995922, 1.0240000486373901, 0.0, 0.0, 0.0, 0.0, 0.0, 1.707110495889839E9, 0.0, 2024-02-04 21:21:35.889
13.0, -217.00769492890686, 230.14783342322335, 73.03837618464604, 31.60776447551325, -0.04800000227987766, 0.01600000075995922, 1.0240000486373901, 0.0, 0.0, 0.0, 0.0, 0.0, 1.707110495889839E9, 0.0, 2024-02-04 21:21:35.889
14.0, -117.37302020937204, 27.778106920886785, -49.088056868407875, -92.6915504517965, -0.04800000227987766, 0.01600000075995922, 1.0240000486373901, 0.0, 0.0, 0.0, 0.0, 0.0, 1.707110495901034E9, 0.0, 2024-02-04 21:21:35.901
14.0, -24.266340862493962, 246.0816771844402, 20.889211202505976, 104.11694481642917, -0.04800000227987766, 0.01600000075995922, 1.0240000486373901, 0.0, 0.0, 0.0, 0.0, 0.0, 1.707110495901034E9, 0.0, 2024-02-04 21:21:35.901
15.0, 82.81260471884161, 122.02732570422813, 110.04842614615336, 114.18849539710209, -0.04800000227987766, 0.01600000075995922, 1.0240000486373901, 0.0, 0.0, 0.0, 0.0, 0.0, 1.7071104959173E9, 0.0, 2024-02-04 21:21:35.917
15.0, 223.35430515371263, 167.45215056603774, -10.200577129144222, -84.78914184542373, -0.04800000227987766, 0.01600000075995922, 1.0240000486373901, 0.0, 0.0, 0.0, 0.0, 0.0, 1.7071104959173E9, 0.0, 2024-02-04 21:21:35.917
16.0, 192.69460531696677, 269.99833740107715, -15.268141569104046, 43.481946834828705, -0.04800000227987766, 0.01600000075995922, 1.0240000486373901, 0.0, 0.0, 0.0, 0.0, 0.0, 1.707110495920345E9, 0.0, 2024-02-04 21:21:35.920
16.0, 78.05919187515974, 467.69318895880133, 103.82523261988536, 149.36599438032135, -0.04800000227987766, 0.01600000075995922, 1.0240000486373901, 0.0, 0.0, 0.0, 0.0, 0.0, 1.707110495920345E9, 0.0, 2024-02-04 21:21:35.920
17.0, -6.326040775049478, 256.1363982153125, 43.17901493841782, -37.883316601160914, -0.04800000227987766, 0.01600000075995922, 1.0240000486373901, 0.0, 0.0, 0.0, 0.0, 0.0, 1.707110495931488E9, 0.0, 2024-02-04 21:21:35.931
17.0, -120.12184667680413, 374.42008406389505, -54.742785601411015, -44.712373920250684, -0.04800000227987766, 0.01600000075995922, 1.0240000486373901, 0.0, 0.0, 0.0, 0.0, 0.0, 1.707110495931488E9, 0.0, 2024-02-04 21:21:35.931
18.0, -267.88529392611235, 341.6809998517856, 67.42478635115549, 147.6419005007483, -0.04800000227987766, 0.01600000075995922, 1.0240000486373901, 0.0, 0.0, 0.0, 0.0, 0.0, 1.707110495946851E9, 0.0, 2024-02-04 21:21:35.946
18.0, -223.39170415326953, 241.71908388612792, 78.08350122487172, 33.032666358631104, -0.04800000227987766, 0.01600000075995922, 1.0240000486373901, 0.0, 0.0, 0.0, 0.0, 0.0, 1.707110495946851E9, 0.0, 2024-02-04 21:21:35.946
19.0, -113.7228778526187, 41.91866865335032, -49.19277406716719, -96.90641770185903, -0.04800000227987766, 0.01600000075995922, 1.0240000486373901, 0.0, 0.0, 0.0, 0.0, 0.0, 1.707110495949785E9, 0.0, 2024-02-04 21:21:35.949
19.0, -18.787387427408248, 257.43975334987044, 9.624632535967976, 98.18172358674929, -0.04800000227987766, 0.01600000075995922, 1.0240000486373901, 0.0, 0.0, 0.0, 0.0, 0.0, 1.707110495949785E9, 0.0, 2024-02-04 21:21:35.949
20.0, 103.8271025698632, 134.3802152578719, 104.64801061013713, 105.50818759994581, -0.04800000227987766, 0.01600000075995922, 1.0240000486373901, 0.0, 0.0, 0.0, 0.0, 0.0, 1.707110495961376E9, 0.0, 2024-02-04 21:21:35.961
20.0, 246.72120007686317, 175.85570576647297, -17.179230446461588, -96.07615991169587, -0.04800000227987766, 0.01600000075995922, 1.0240000486373901, 0.0, 0.0, 0.0, 0.0, 0.0, 1.707110495961376E9, 0.0, 2024-02-04 21:21:35.961
21.0, 209.9879027120769, 275.97095763031393, -29.756513997446746, 30.968241583090276, -0.04800000227987766, 0.01600000075995922, 1.0240000486373901, 0.0, 0.0, 0.0, 0.0, 0.0, 1.70711049597713E9, 0.0, 2024-02-04 21:21:35.977
21.0, 90.31858392991126, 468.4897876493633, 91.74161586305127, 146.00756422011182, -0.04800000227987766, 0.01600000075995922, 1.0240000486373901, 0.0, 0.0, 0.0, 0.0, 0.0, 1.70711049597713E9, 0.0, 2024-02-04 21:21:35.977
22.0, 2.6272797188721597, 258.30554018961266, 34.37155054276809, -47.4125816882588, -0.04800000227987766, 0.01600000075995922, 1.0240000486373901, 0.0, 0.0, 0.0, 0.0, 0.0, 1.707110495980458E9, 0.0, 2024-02-04 21:21:35.980
22.0, -116.0902345245704, 368.67559773195535, -55.85727578820661, -49.884655558969826, -0.04800000227987766, 0.01600000075995922, 1.0240000486373901, 0.0, 0.0, 0.0, 0.0, 0.0, 1.707110495980458E9, 0.0, 2024-02-04 21:21:35.980
23.0, -288.7576755788177, 328.24353931099176, 67.76137734716758, 151.11626755958423, -0.04800000227987766, 0.01600000075995922, 1.0240000486373901, 0.0, 0.0, 0.0, 0.0, 0.0, 1.707110495991336E9, 0.0, 2024-02-04 21:21:35.991
23.0, -244.21172720659524, 219.90798734454438, 82.90049236780033, 39.476513982284814, -0.04800000227987766, 0.01600000075995922, 1.0240000486373901, 0.0, 0.0, 0.0, 0.0, 0.0, 1.707110495991336E9, 0.0, 2024-02-04 21:21:35.991
24.0, -138.55955345835537, 21.367918396834284, -37.15403610980138, -82.05153507785872, -0.04800000227987766, 0.01600000075995922, 1.0240000486373901, 0.0, 0.0, 0.0, 0.0, 0.0, 1.707110496007021E9, 0.0, 2024-02-04 21:21:36.007
24.0, -59.64205454336479, 237.76413968298584, 30.085625193547457, 117.7414003550075, -0.04800000227987766, 0.01600000075995922, 1.0240000486373901, 0.0, 0.0, 0.0, 0.0, 0.0, 1.707110496007021E9, 0.0, 2024-02-04 21:21:36.007
25.0, 56.63704492896795, 115.46006138203666, 122.86506329430267, 127.69327413709834, -0.04800000227987766, 0.01600000075995922, 1.0240000486373901, 0.0, 0.0, 0.0, 0.0, 0.0, 1.707110496010199E9, 0.0, 2024-02-04 21:21:36.010
25.0, 212.16078458633274, 160.466017448809, 2.7918353169225156, -71.28062320547178, -0.04800000227987766, 0.01600000075995922, 1.0240000486373901, 0.0, 0.0, 0.0, 0.0, 0.0, 1.707110496010199E9, 0.0, 2024-02-04 21:21:36.010
26.0, 169.1556749958545, 266.7259249398485, -12.171504405792803, 52.270711730699986, -0.04800000227987766, 0.01600000075995922, 1.0240000486373901, 0.0, 0.0, 0.0, 0.0, 0.0, 1.707110496021188E9, 0.0, 2024-02-04 21:21:36.021
26.0, 56.88761822599918, 467.94002235587686, 105.4408694007434, 158.7606230690144, -0.04800000227987766, 0.01600000075995922, 1.0240000486373901, 0.0, 0.0, 0.0, 0.0, 0.0, 1.707110496021188E9, 0.0, 2024-02-04 21:21:36.021
27.0, -16.876298550050706, 259.52848747512326, 51.126302344258875, -22.235575186554343, -0.04800000227987766, 0.01600000075995922, 1.0240000486373901, 0.0, 0.0, 0.0, 0.0, 0.0, 1.707110496038039E9, 0.0, 2024-02-04 21:21:36.038
27.0, -135.51527489442378, 371.2075100019574, -46.88151589455083, -45.486533211078495, -0.04800000227987766, 0.01600000075995922, 1.0240000486373901, 0.0, 0.0, 0.0, 0.0, 0.0, 1.707110496038039E9, 0.0, 2024-02-04 21:21:36.038
28.0, -293.38393182400614, 333.7860710453242, 70.30076941708103, 154.48591741966084, -0.04800000227987766, 0.01600000075995922, 1.0240000486373901, 0.0, 0.0, 0.0, 0.0, 0.0, 1.707110496041831E9, 0.0, 2024-02-04 21:21:36.041
28.0, -242.562431326136, 234.16822587559, 87.43699101405218, 40.35913037182763, -0.04800000227987766, 0.01600000075995922, 1.0240000486373901, 0.0, 0.0, 0.0, 0.0, 0.0, 1.707110496041831E9, 0.0, 2024-02-04 21:21:36.041
29.0, -132.01472853589803, 32.90550976013765, -45.7071873084642, -87.47812991356477, -0.04800000227987766, 0.01600000075995922, 1.0240000486373901, 0.0, 0.0, 0.0, 0.0, 0.0, 1.707110496051373E9, 0.0, 2024-02-04 21:21:36.051
29.0, -52.01265863375738, 245.83858368732035, 26.69353593373671, 115.59843768039718, -0.04800000227987766, 0.01600000075995922, 1.0240000486373901, 0.0, 0.0, 0.0, 0.0, 0.0, 1.707110496051373E9, 0.0, 2024-02-04 21:21:36.051
30.0, 71.65274325106293, 128.02986513311043, 117.0382991633378, 122.53221219824627, -0.04800000227987766, 0.01600000075995922, 1.0240000486373901, 0.0, 0.0, 0.0, 0.0, 0.0, 1.707110496066986E9, 0.0, 2024-02-04 21:21:36.066
30.0, 228.668702990748, 169.9167446368374, -3.547295107971877, -73.13561358349398, -0.04800000227987766, 0.01600000075995922, 1.0240000486373901, 0.0, 0.0, 0.0, 0.0, 0.0, 1.707110496066986E9, 0.0, 2024-02-04 21:21:36.066
31.0, 177.80232369340956, 269.25409730989486, -17.12687184708193, 47.494859487283975, -0.04800000227987766, 0.01600000075995922, 1.0240000486373901, 0.0, 0.0, 0.0, 0.0, 0.0, 1.707110496070292E9, 0.0, 2024-02-04 21:21:36.070
31.0, 57.90861091390252, 460.5537199433893, 106.88073088368401, 160.84748724428937, -0.04800000227987766, 0.01600000075995922, 1.0240000486373901, 0.0, 0.0, 0.0, 0.0, 0.0, 1.707110496070292E9, 0.0, 2024-02-04 21:21:36.070
32.0, -20.530180806759745, 252.18332396214828, 49.69766056118533, -23.1780299753882, -0.04800000227987766, 0.01600000075995922, 1.0240000486373901, 0.0, 0.0, 0.0, 0.0, 0.0, 1.70711049608131E9, 0.0, 2024-02-04 21:21:36.081
32.0, -143.3615850014612, 360.96018412336707, -46.56362439831719, -31.55914577608928, -0.04800000227987766, 0.01600000075995922, 1.0240000486373901, 0.0, 0.0, 0.0, 0.0, 0.0, 1.70711049608131E9, 0.0, 2024-02-04 21:21:36.081
33.0, -315.2212076652795, 324.02867206092924, 76.0190764493309, 165.14837219333276, -0.04800000227987766, 0.01600000075995922, 1.0240000486373901, 0.0, 0.0, 0.0, 0.0, 0.0, 1.70711049609695E9, 0.0, 2024-02-04 21:21:36.096
33.0, -262.2717040926218, 220.48393193772063, 93.46196984266862, 50.1165293562226, -0.04800000227987766, 0.01600000075995922, 1.0240000486373901, 0.0, 0.0, 0.0, 0.0, 0.0, 1.70711049609695E9, 0.0, 2024-02-04 21:21:36.096
34.0, -151.4846477052197, 18.058106936048716, -28.092258517164737, -69.54904952598736, -0.04800000227987766, 0.01600000075995922, 1.0240000486373901, 0.0, 0.0, 0.0, 0.0, 0.0, 1.707110496100084E9, 0.0, 2024-02-04 21:21:36.100
34.0, -88.03537500696257, 231.80273915361613, 34.77171983802691, 126.87423604680225, -0.04800000227987766, 0.01600000075995922, 1.0240000486373901, 0.0, 0.0, 0.0, 0.0, 0.0, 1.707110496100084E9, 0.0, 2024-02-04 21:21:36.100
35.0, 36.32190836966038, 111.56308562820777, 130.4533203043975, 137.5292110205628, -0.04800000227987766, 0.01600000075995922, 1.0240000486373901, 0.0, 0.0, 0.0, 0.0, 0.0, 1.707110496111208E9, 0.0, 2024-02-04 21:21:36.111
35.0, 200.47359722480178, 157.7246707812883, 11.247749116737396, -60.801423529628664, -0.04800000227987766, 0.01600000075995922, 1.0240000486373901, 0.0, 0.0, 0.0, 0.0, 0.0, 1.707110496111208E9, 0.0, 2024-02-04 21:21:36.111
36.0, 155.11983046215028, 262.6120349885896, -2.7058176179416478, 59.24562514806166, -0.04800000227987766, 0.01600000075995922, 1.0240000486373901, 0.0, 0.0, 0.0, 0.0, 0.0, 1.707110496127748E9, 0.0, 2024-02-04 21:21:36.127
36.0, 38.65934584196657, 462.5059477202594, 114.88411678886041, 168.11037295823917, -0.04800000227987766, 0.01600000075995922, 1.0240000486373901, 0.0, 0.0, 0.0, 0.0, 0.0, 1.707110496127748E9, 0.0, 2024-02-04 21:21:36.127
37.0, -17.396144643891603, 261.71632894920185, 53.41138121718541, -25.93807614268735, -0.04800000227987766, 0.01600000075995922, 1.0240000486373901, 0.0, 0.0, 0.0, 0.0, 0.0, 1.707110496131507E9, 0.0, 2024-02-04 21:21:36.131
37.0, -137.1757904747501, 369.9247243171558, -47.29664478963241, -38.37324349535629, -0.04800000227987766, 0.01600000075995922, 1.0240000486373901, 0.0, 0.0, 0.0, 0.0, 0.0, 1.707110496131507E9, 0.0, 2024-02-04 21:21:36.131
38.0, -301.49577482789755, 336.8976678084582, 70.82435541087762, 155.89959960291162, -0.04800000227987766, 0.01600000075995922, 1.0240000486373901, 0.0, 0.0, 0.0, 0.0, 0.0, 1.707110496141436E9, 0.0, 2024-02-04 21:21:36.141
38.0, -239.86222355812788, 236.9469715426676, 82.11511337710544, 42.07948435144499, -0.04800000227987766, 0.01600000075995922, 1.0240000486373901, 0.0, 0.0, 0.0, 0.0, 0.0, 1.707110496141436E9, 0.0, 2024-02-04 21:21:36.141
39.0, -119.97599057853222, 31.312312379013747, -42.97706034081057, -88.15505180554464, -0.04800000227987766, 0.01600000075995922, 1.0240000486373901, 0.0, 0.0, 0.0, 0.0, 0.0, 1.707110496156982E9, 0.0, 2024-02-04 21:21:36.156
39.0, -51.073943744879216, 249.01375874970108, 21.5100345951505, 111.40974973002449, -0.04800000227987766, 0.01600000075995922, 1.0240000486373901, 0.0, 0.0, 0.0, 0.0, 0.0, 1.707110496156982E9, 0.0, 2024-02-04 21:21:36.156
40.0, 76.1855019973591, 135.1169755491428, 114.18101559719071, 123.00717949261889, -0.04800000227987766, 0.01600000075995922, 1.0240000486373901, 0.0, 0.0, 0.0, 0.0, 0.0, 1.707110496160002E9, 0.0, 2024-02-04 21:21:36.160
40.0, 244.09953020792454, 173.09191969921812, -8.128672553692013, -82.59008067147806, -0.04800000227987766, 0.01600000075995922, 1.0240000486373901, 0.0, 0.0, 0.0, 0.0, 0.0, 1.707110496160002E9, 0.0, 2024-02-04 21:21:36.160
41.0, 194.5757749946788, 270.70143859274685, -21.293120397720486, 44.94424771750346, -0.04800000227987766, 0.01600000075995922, 1.0240000486373901, 0.0, 0.0, 0.0, 0.0, 0.0, 1.707110496171473E9, 0.0, 2024-02-04 21:21:36.171
41.0, 73.13374363351613, 465.0266402903944, 97.15325109893456, 151.80066925147548, -0.04800000227987766, 0.01600000075995922, 1.0240000486373901, 0.0, 0.0, 0.0, 0.0, 0.0, 1.707110496171473E9, 0.0, 2024-02-04 21:21:36.171
42.0, 13.716083087492734, 265.38143090577796, 42.778845643159, -34.82033853745088, -0.04800000227987766, 0.01600000075995922, 1.0240000486373901, 0.0, 0.0, 0.0, 0.0, 0.0, 1.707110496186873E9, 0.0, 2024-02-04 21:21:36.186
42.0, -110.05777589604259, 367.81916064210236, -59.585956044029444, -49.65652166167274, -0.04800000227987766, 0.01600000075995922, 1.0240000486373901, 0.0, 0.0, 0.0, 0.0, 0.0, 1.707110496186873E9, 0.0, 2024-02-04 21:21:36.186
43.0, -280.3952592778951, 336.9687259076163, 58.59114265581593, 147.81393589871004, -0.04800000227987766, 0.01600000075995922, 1.0240000486373901, 0.0, 0.0, 0.0, 0.0, 0.0, 1.707110496189734E9, 0.0, 2024-02-04 21:21:36.189
43.0, -217.52754102274776, 237.75478993309662, 79.4261253089644, 31.319792178925127, -0.04800000227987766, 0.01600000075995922, 1.0240000486373901, 0.0, 0.0, 0.0, 0.0, 0.0, 1.707110496189734E9, 0.0, 2024-02-04 21:21:36.189
44.0, -98.0115581387654, 32.38566366629675, -49.59294336242601, -97.71049619233236, -0.04800000227987766, 0.01600000075995922, 1.0240000486373901, 0.0, 0.0, 0.0, 0.0, 0.0, 1.707110496201483E9, 0.0, 2024-02-04 21:21:36.201
44.0, -33.043886058498174, 242.188441330567, 9.594713336322457, 97.14577129902318, -0.04800000227987766, 0.01600000075995922, 1.0240000486373901, 0.0, 0.0, 0.0, 0.0, 0.0, 1.707110496201483E9, 0.0, 2024-02-04 21:21:36.201
45.0, 99.27938422374427, 132.521484979894, 106.79845308465883, 107.96904177078977, -0.04800000227987766, 0.01600000075995922, 1.0240000486373901, 0.0, 0.0, 0.0, 0.0, 0.0, 1.707110496217101E9, 0.0, 2024-02-04 21:21:36.217
45.0, 274.37776024919003, 173.63046529283747, -15.11106577096507, -89.51637538941577, -0.04800000227987766, 0.01600000075995922, 1.0240000486373901, 0.0, 0.0, 0.0, 0.0, 0.0, 1.707110496217101E9, 0.0, 2024-02-04 21:21:36.217
46.0, 219.90611739456654, 277.03308921772987, -28.271773715037853, 29.008534006308764, -0.04800000227987766, 0.01600000075995922, 1.0240000486373901, 0.0, 0.0, 0.0, 0.0, 0.0, 1.707110496220175E9, 0.0, 2024-02-04 21:21:36.220
46.0, 101.5308039970696, 476.35853715613484, 88.71977669885382, 143.42703325068578, -0.04800000227987766, 0.01600000075995922, 1.0240000486373901, 0.0, 0.0, 0.0, 0.0, 0.0, 1.707110496220175E9, 0.0, 2024-02-04 21:21:36.220
47.0, 40.92011536518112, 273.65408960776404, 30.253920691553503, -47.895028782542795, -0.04800000227987766, 0.01600000075995922, 1.0240000486373901, 0.0, 0.0, 0.0, 0.0, 0.0, 1.707110496231194E9, 0.0, 2024-02-04 21:21:36.231
47.0, -85.29215838946402, 372.94282358139753, -68.63651393679902, -60.57702953228727, -0.04800000227987766, 0.01600000075995922, 1.0240000486373901, 0.0, 0.0, 0.0, 0.0, 0.0, 1.707110496231194E9, 0.0, 2024-02-04 21:21:36.231
48.0, -256.25794496387243, 339.4520194781944, 46.58232389809564, 132.51400517998263, -0.04800000227987766, 0.01600000075995922, 1.0240000486373901, 0.0, 0.0, 0.0, 0.0, 0.0, 1.707110496247035E9, 0.0, 2024-02-04 21:21:36.247
48.0, -193.21445141080767, 241.09078069357201, 67.1592534543015, 18.144124635029584, -0.04800000227987766, 0.01600000075995922, 1.0240000486373901, 0.0, 0.0, 0.0, 0.0, 0.0, 1.707110496247035E9, 0.0, 2024-02-04 21:21:36.247
49.0, -75.38890330679715, 38.17502879770473, -61.46338582178578, -104.35255851363763, -0.04800000227987766, 0.01600000075995922, 1.0240000486373901, 0.0, 0.0, 0.0, 0.0, 0.0, 1.707110496250048E9, 0.0, 2024-02-04 21:21:36.250
49.0, -17.57565984176472, 246.14525548368692, 3.577214307617396, 91.40128496708348, -0.04800000227987766, 0.01600000075995922, 1.0240000486373901, 0.0, 0.0, 0.0, 0.0, 0.0, 1.707110496250048E9, 0.0, 2024-02-04 21:21:36.250
50.0, 108.65905331261456, 136.53439763234928, 102.01138114137575, 101.19982285099104, -0.04800000227987766, 0.01600000075995922, 1.0240000486373901, 0.0, 0.0, 0.0, 0.0, 0.0, 1.707110496278076E9, 0.0, 2024-02-04 21:21:36.278
50.0, 281.63316616322845, 171.74181581521407, -17.11939204717055, -102.31057313783094, -0.04800000227987766, 0.01600000075995922, 1.0240000486373901, 0.0, 0.0, 0.0, 0.0, 0.0, 1.707110496278076E9, 0.0, 2024-02-04 21:21:36.278
51.0, 221.13654447998852, 269.0521427122876, -37.1091573103331, 28.39893031353131, -0.04800000227987766, 0.01600000075995922, 1.0240000486373901, 0.0, 0.0, 0.0, 0.0, 0.0, 1.707110496281205E9, 0.0, 2024-02-04 21:21:36.281
51.0, 95.4908655686304, 468.9348357440904, 84.94247774360701, 143.93191974470392, -0.04800000227987766, 0.01600000075995922, 1.0240000486373901, 0.0, 0.0, 0.0, 0.0, 0.0, 1.707110496281205E9, 0.0, 2024-02-04 21:21:36.281
52.0, 37.23257400887087, 264.87280451180413, 30.212781792040914, -43.811058030929416, -0.04800000227987766, 0.01600000075995922, 1.0240000486373901, 0.0, 0.0, 0.0, 0.0, 0.0, 1.707110496284195E9, 0.0, 2024-02-04 21:21:36.284
52.0, -86.57868397422135, 371.140191802755, -67.99699104437605, -55.943293487187475, -0.04800000227987766, 0.01600000075995922, 1.0240000486373901, 0.0, 0.0, 0.0, 0.0, 0.0, 1.707110496284195E9, 0.0, 2024-02-04 21:21:36.284
53.0, -275.11452054046094, 338.7900571860373, 49.73131966078654, 142.17790666548535, -0.04800000227987766, 0.01600000075995922, 1.0240000486373901, 0.0, 0.0, 0.0, 0.0, 0.0, 1.70711049629131E9, 0.0, 2024-02-04 21:21:36.291
53.0, -198.02770265378058, 245.49264294141904, 71.29184290533885, 27.366717925760895, -0.04800000227987766, 0.01600000075995922, 1.0240000486373901, 0.0, 0.0, 0.0, 0.0, 0.0, 1.70711049629131E9, 0.0, 2024-02-04 21:21:36.291
54.0, -69.2180683799088, 45.056444716174155, -59.978645539376885, -109.62955735111609, -0.04800000227987766, 0.01600000075995922, 1.0240000486373901, 0.0, 0.0, 0.0, 0.0, 0.0, 1.707110496307024E9, 0.0, 2024-02-04 21:21:36.307
54.0, -26.472881836351007, 249.3802689453587, -2.171011924277991, 94.77093482716009, -0.04800000227987766, 0.01600000075995922, 1.0240000486373901, 0.0, 0.0, 0.0, 0.0, 0.0, 1.707110496307024E9, 0.0, 2024-02-04 21:21:36.307
55.0, 98.31075013522059, 139.61233529588208, 93.9144977373071, 101.83560584345832, -0.04800000227987766, 0.01600000075995922, 1.0240000486373901, 0.0, 0.0, 0.0, 0.0, 0.0, 1.70711049630994E9, 0.0, 2024-02-04 21:21:36.309
55.0, 307.0009075626731, 189.68959570256993, -25.320992649998516, -111.2938128313981, -0.04800000227987766, 0.01600000075995922, 1.0240000486373901, 0.0, 0.0, 0.0, 0.0, 0.0, 1.70711049630994E9, 0.0, 2024-02-04 21:21:36.309
56.0, 246.03305848501623, 284.0192223349586, -48.23161977855489, 8.67843784717843, -0.04800000227987766, 0.01600000075995922, 1.0240000486373901, 0.0, 0.0, 0.0, 0.0, 0.0, 1.707110496321095E9, 0.0, 2024-02-04 21:21:36.321
56.0, 96.7474719537422, 481.0408919006586, 79.69539810577407, 131.02552499761805, -0.04800000227987766, 0.01600000075995922, 1.0240000486373901, 0.0, 0.0, 0.0, 0.0, 0.0, 1.707110496321095E9, 0.0, 2024-02-04 21:21:36.321
57.0, 88.27846850408241, 298.25515151629224, 16.019861460197717, -68.1241476428695, -0.04800000227987766, 0.01600000075995922, 1.0240000486373901, 0.0, 0.0, 0.0, 0.0, 0.0, 1.707110496336817E9, 0.0, 2024-02-04 21:21:36.336
57.0, -18.011358186602592, 390.8083256697282, -98.22660238621756, -91.99966895999387, -0.04800000227987766, 0.01600000075995922, 1.0240000486373901, 0.0, 0.0, 0.0, 0.0, 0.0, 1.707110496336817E9, 0.0, 2024-02-04 21:21:36.336
58.0, -239.23766026552767, 348.88404716644436, 23.267787574324757, 113.34327800711617, -0.04800000227987766, 0.01600000075995922, 1.0240000486373901, 0.0, 0.0, 0.0, 0.0, 0.0, 1.707110496339803E9, 0.0, 2024-02-04 21:21:36.339
58.0, -139.3224930493161, 271.6981219309382, 46.93387449393049, -4.927318191621453, -0.04800000227987766, 0.01600000075995922, 1.0240000486373901, 0.0, 0.0, 0.0, 0.0, 0.0, 1.707110496339803E9, 0.0, 2024-02-04 21:21:36.339
59.0, 16.186287008225918, 67.15177365439013, -93.70506333978847, -154.69535181717947, -0.04800000227987766, 0.01600000075995922, 1.0240000486373901, 0.0, 0.0, 0.0, 0.0, 0.0, 1.707110496351292E9, 0.0, 2024-02-04 21:21:36.351
59.0, 31.65638317493722, 262.4848783900961, -28.78040010901168, 59.36904184659943, -0.04800000227987766, 0.01600000075995922, 1.0240000486373901, 0.0, 0.0, 0.0, 0.0, 0.0, 1.707110496351292E9, 0.0, 2024-02-04 21:21:36.351
60.0, 156.9224622407928, 150.24487086990848, 75.22995755868033, 75.41695255646482, -0.04800000227987766, 0.01600000075995922, 1.0240000486373901, 0.0, 0.0, 0.0, 0.0, 0.0, 1.707110496367126E9, 0.0, 2024-02-04 21:21:36.367
60.0, 378.328279517591, 206.61638290202245, -48.654228473547846, -140.17706018919125, -0.04800000227987766, 0.01600000075995922, 1.0240000486373901, 0.0, 0.0, 0.0, 0.0, 0.0, 1.707110496367126E9, 0.0, 2024-02-04 21:21:36.367
61.0, 294.55826041009277, 286.62967250403017, -78.0161830256693, -19.703662916552275, -0.04800000227987766, 0.01600000075995922, 1.0240000486373901, 0.0, 0.0, 0.0, 0.0, 0.0, 1.707110496370205E9, 0.0, 2024-02-04 21:21:36.370
61.0, 140.65015753358603, 489.39582840166986, 57.40933426981792, 110.89364353613928, -0.04800000227987766, 0.01600000075995922, 1.0240000486373901, 0.0, 0.0, 0.0, 0.0, 0.0, 1.707110496370205E9, 0.0, 2024-02-04 21:21:36.370
62.0, 144.04224679339677, 312.5340895471163, -4.882439392153174, -92.60179285285994, -0.04800000227987766, 0.01600000075995922, 1.0240000486373901, 0.0, 0.0, 0.0, 0.0, 0.0, 1.707110496381193E9, 0.0, 2024-02-04 21:21:36.381
62.0, 22.220615586731583, 389.64895668346435, -119.98908022837713, -111.39105023024604, -0.04800000227987766, 0.01600000075995922, 1.0240000486373901, 0.0, 0.0, 0.0, 0.0, 0.0, 1.707110496381193E9, 0.0, 2024-02-04 21:21:36.381
63.0, -218.77479765797034, 342.5972753409296, 13.409411291126162, 104.87614450743422, -0.04800000227987766, 0.01600000075995922, 1.0240000486373901, 0.0, 0.0, 0.0, 0.0, 0.0, 1.70711049639687E9, 0.0, 2024-02-04 21:21:36.396
63.0, -106.09535189298913, 271.8551977290772, 36.53321271715686, -16.981015748810023, -0.04800000227987766, 0.01600000075995922, 1.0240000486373901, 0.0, 0.0, 0.0, 0.0, 0.0, 1.70711049639687E9, 0.0, 2024-02-04 21:21:36.396
64.0, 59.40270094620064, 70.68597911251709, -103.52978052338585, -161.48701013671234, -0.04800000227987766, 0.01600000075995922, 1.0240000486373901, 0.0, 0.0, 0.0, 0.0, 0.0, 1.707110496399838E9, 0.0, 2024-02-04 21:21:36.399
64.0, 47.917468182276934, 254.50393188465387, -43.0032396405004, 51.967779834289104, -0.04800000227987766, 0.01600000075995922, 1.0240000486373901, 0.0, 0.0, 0.0, 0.0, 0.0, 1.707110496399838E9, 0.0, 2024-02-04 21:21:36.399
65.0, 175.3788685221225, 161.19903784012422, 67.69031924800947, 67.32380905235186, -0.04800000227987766, 0.01600000075995922, 1.0240000486373901, 0.0, 0.0, 0.0, 0.0, 0.0, 1.707110496411265E9, 0.0, 2024-02-04 21:21:36.411
65.0, -62.06550971465185, 215.90629439195618, -67.70153894787654, -156.64009979413822, -0.04800000227987766, 0.01600000075995922, 1.0240000486373901, 0.0, 0.0, 0.0, 0.0, 0.0, 1.707110496411265E9, 0.0, 2024-02-04 21:21:36.411
66.0, -169.26226214459166, 281.3227544669062, -92.27642155671492, -26.00165444193408, -0.04800000227987766, 0.01600000075995922, 1.0240000486373901, 0.0, 0.0, 0.0, 0.0, 0.0, 1.707110496427096E9, 0.0, 2024-02-04 21:21:36.427
66.0, -338.38427804084495, 483.43816777225584, 43.425848335493356, 102.34049233747646, -0.04800000227987766, 0.01600000075995922, 1.0240000486373901, 0.0, 0.0, 0.0, 0.0, 0.0, 1.707110496427096E9, 0.0, 2024-02-04 21:21:36.427
67.0, -309.9872176772915, 308.087348499801, -11.318807215895504, -108.80303946090862, -0.04800000227987766, 0.01600000075995922, 1.0240000486373901, 0.0, 0.0, 0.0, 0.0, 0.0, 1.707110496430249E9, 0.0, 2024-02-04 21:21:36.430
67.0, -440.9566441755742, 394.39862962719053, -130.38974200515077, -125.34087706496939, -0.04800000227987766, 0.01600000075995922, 1.0240000486373901, 0.0, 0.0, 0.0, 0.0, 0.0, 1.707110496430249E9, 0.0, 2024-02-04 21:21:36.430
68.0, -210.00099236192182, 341.35936845559627, -0.43195844488218427, 96.70820300420746, -0.04800000227987766, 0.01600000075995922, 1.0240000486373901, 0.0, 0.0, 0.0, 0.0, 0.0, 1.707110496441374E9, 0.0, 2024-02-04 21:21:36.441
68.0, -89.22840309282765, 278.24668675335124, 30.8485647845082, -22.149557487573475, -0.04800000227987766, 0.01600000075995922, 1.0240000486373901, 0.0, 0.0, 0.0, 0.0, 0.0, 1.707110496441374E9, 0.0, 2024-02-04 21:21:36.441
69.0, 83.11740656523034, 64.82181598199531, -114.50264699338004, -174.34852608432993, -0.04800000227987766, 0.01600000075995922, 1.0240000486373901, 0.0, 0.0, 0.0, 0.0, 0.0, 1.707110496457039E9, 0.0, 2024-02-04 21:21:36.457
69.0, 42.240300049539655, 243.43008811585605, -47.517298887018114, 51.73964593699202, -0.04800000227987766, 0.01600000075995922, 1.0240000486373901, 0.0, 0.0, 0.0, 0.0, 0.0, 1.707110496457039E9, 0.0, 2024-02-04 21:21:36.457
70.0, 178.66998048312962, 153.169472635258, 67.75015764730051, 64.46652548620477, -0.04800000227987766, 0.01600000075995922, 1.0240000486373901, 0.0, 0.0, 0.0, 0.0, 0.0, 1.707110496460257E9, 0.0, 2024-02-04 21:21:36.460
70.0, -58.370488558430225, 207.8580296873115, -63.52407069737092, -159.22063076356426, -0.04800000227987766, 0.01600000075995922, 1.0240000486373901, 0.0, 0.0, 0.0, 0.0, 0.0, 1.707110496460257E9, 0.0, 2024-02-04 21:21:36.460
71.0, -185.13439755653962, 267.81423582695425, -85.94103103177622, -23.638037669938058, -0.04800000227987766, 0.01600000075995922, 1.0240000486373901, 0.0, 0.0, 0.0, 0.0, 0.0, 1.70711049647141E9, 0.0, 2024-02-04 21:21:36.471
71.0, -367.43582089664415, 466.57869877200574, 55.76377828931436, 112.38586361845955, -0.04800000227987766, 0.01600000075995922, 1.0240000486373901, 0.0, 0.0, 0.0, 0.0, 0.0, 1.70711049647141E9, 0.0, 2024-02-04 21:21:36.471
72.0, -328.07711376296356, 301.69585947552696, -0.3422008459456265, -89.94272398436442, -0.04800000227987766, 0.01600000075995922, 1.0240000486373901, 0.0, 0.0, 0.0, 0.0, 0.0, 1.707110496487017E9, 0.0, 2024-02-04 21:21:36.487
72.0, -468.7141816467047, 375.63929144944996, -115.78917257813737, -105.4371295007877, -0.04800000227987766, 0.01600000075995922, 1.0240000486373901, 0.0, 0.0, 0.0, 0.0, 0.0, 1.707110496487017E9, 0.0, 2024-02-04 21:21:36.487
73.0, -256.53656751057133, 324.57843735441566, 21.48385529546067, 121.51495941029862, -0.04800000227987766, 0.01600000075995922, 1.0240000486373901, 0.0, 0.0, 0.0, 0.0, 0.0, 1.707110496490124E9, 0.0, 2024-02-04 21:21:36.490
73.0, -129.50338571565226, 261.7425082488917, 54.24911880725995, 3.1994844120927155, -0.04800000227987766, 0.01600000075995922, 1.0240000486373901, 0.0, 0.0, 0.0, 0.0, 0.0, 1.707110496490124E9, 0.0, 2024-02-04 21:21:36.490
74.0, 34.240654044318944, 43.31739123677835, -85.63809913536534, -145.73455152334645, -0.04800000227987766, 0.01600000075995922, 1.0240000486373901, 0.0, 0.0, 0.0, 0.0, 0.0, 1.707110496501093E9, 0.0, 2024-02-04 21:21:36.501
74.0, -20.840592503082007, 221.11410508025438, -17.86737203830853, 85.97843003133312, -0.04800000227987766, 0.01600000075995922, 1.0240000486373901, 0.0, 0.0, 0.0, 0.0, 0.0, 1.707110496501093E9, 0.0, 2024-02-04 21:21:36.501
75.0, 119.36264698579907, 138.03409751458094, 102.00390134146437, 102.74066163273528, -0.04800000227987766, 0.01600000075995922, 1.0240000486373901, 0.0, 0.0, 0.0, 0.0, 0.0, 1.707110496516952E9, 0.0, 2024-02-04 21:21:36.516
75.0, -118.61653694463894, 188.4367292174138, -36.581831416580826, -123.77759888349101, -0.04800000227987766, 0.01600000075995922, 1.0240000486373901, 0.0, 0.0, 0.0, 0.0, 0.0, 1.707110496516952E9, 0.0, 2024-02-04 21:21:36.516
76.0, -260.04459366900846, 241.69851443637162, -54.20050010783598, 10.64562522387132, -0.04800000227987766, 0.01600000075995922, 1.0240000486373901, 0.0, 0.0, 0.0, 0.0, 0.0, 1.707110496519654E9, 0.0, 2024-02-04 21:21:36.519
76.0, -433.8452244098298, 453.63864492531866, 94.15385133447126, 156.3932663970627, -0.04800000227987766, 0.01600000075995922, 1.0240000486373901, 0.0, 0.0, 0.0, 0.0, 0.0, 1.707110496519654E9, 0.0, 2024-02-04 21:21:36.519
77.0, -400.6835315027274, 281.2273870180361, 41.22678716154769, -58.25081175984815, -0.04800000227987766, 0.01600000075995922, 1.0240000486373901, 0.0, 0.0, 0.0, 0.0, 0.0, 1.707110496531158E9, 0.0, 2024-02-04 21:21:36.531
77.0, -545.8870172323659, 354.55747539922595, -78.86514031561092, -59.556036844383925, -0.04800000227987766, 0.01600000075995922, 1.0240000486373901, 0.0, 0.0, 0.0, 0.0, 0.0, 1.707110496531158E9, 0.0, 2024-02-04 21:21:36.531
78.0, -337.8756516468711, 305.23567478358746, 57.46169286919758, 158.44647147273645, -0.04800000227987766, 0.01600000075995922, 1.0240000486373901, 0.0, 0.0, 0.0, 0.0, 0.0, 1.707110496547045E9, 0.0, 2024-02-04 21:21:36.547
78.0, -206.86695619905367, 242.56056137615815, 95.10752582317218, 44.20000762632117, -0.04800000227987766, 0.01600000075995922, 1.0240000486373901, 0.0, 0.0, 0.0, 0.0, 0.0, 1.707110496547045E9, 0.0, 2024-02-04 21:21:36.547
79.0, -61.538183820899576, 26.7346748332493, -49.38724886486307, -96.81292020296678, -0.04800000227987766, 0.01600000075995922, 1.0240000486373901, 0.0, 0.0, 0.0, 0.0, 0.0, 1.707110496549952E9, 0.0, 2024-02-04 21:21:36.549
79.0, -114.26703329617158, 212.40387808345258, 22.29541358584538, 134.42509405734017, -0.04800000227987766, 0.01600000075995922, 1.0240000486373901, 0.0, 0.0, 0.0, 0.0, 0.0, 1.707110496549952E9, 0.0, 2024-02-04 21:21:36.549
80.0, 23.980238515883684, 123.46344728721306, 144.17875314177945, 152.7917427397333, -0.04800000227987766, 0.01600000075995922, 1.0240000486373901, 0.0, 0.0, 0.0, 0.0, 0.0, 1.707110496561244E9, 0.0, 2024-02-04 21:21:36.561
80.0, -217.26013817591593, 175.85196586651728, 11.969549808185548, -62.779830606188625, -0.04800000227987766, 0.01600000075995922, 1.0240000486373901, 0.0, 0.0, 0.0, 0.0, 0.0, 1.707110496561244E9, 0.0, 2024-02-04 21:21:36.561
81.0, -360.5955438776873, 234.035459427163, -9.03372834296897, 70.02775672031567, -0.04800000227987766, 0.01600000075995922, 1.0240000486373901, 0.0, 0.0, 0.0, 0.0, 0.0, 1.707110496576994E9, 0.0, 2024-02-04 21:21:36.576
81.0, -535.4470865060575, 445.8446934176609, 137.02806442650035, 205.6365291136317, -0.04800000227987766, 0.01600000075995922, 1.0240000486373901, 0.0, 0.0, 0.0, 0.0, 0.0, 1.707110496576994E9, 0.0, 2024-02-04 21:21:36.576
82.0, -504.12168447719887, 274.42824889859185, 80.97818379057571, -1.4679107326082885, -0.04800000227987766, 0.01600000075995922, 1.0240000486373901, 0.0, 0.0, 0.0, 0.0, 0.0, 1.707110496580134E9, 0.0, 2024-02-04 21:21:36.580
82.0, -643.4348277766258, 358.18891825620085, -35.97596762375906, -18.798607127275318, -0.04800000227987766, 0.01600000075995922, 1.0240000486373901, 0.0, 0.0, 0.0, 0.0, 0.0, 1.707110496580134E9, 0.0, 2024-02-04 21:21:36.580
83.0, -427.80154608143494, 316.3693569516763, 99.584186070133, 202.43891465151682, -0.04800000227987766, 0.01600000075995922, 1.0240000486373901, 0.0, 0.0, 0.0, 0.0, 0.0, 1.707110496591111E9, 0.0, 2024-02-04 21:21:36.591
83.0, -290.1246090126224, 251.48396267043427, 127.1135896439664, 77.49259703187272, -0.04800000227987766, 0.01600000075995922, 1.0240000486373901, 0.0, 0.0, 0.0, 0.0, 0.0, 1.707110496591111E9, 0.0, 2024-02-04 21:21:36.591
84.0, -125.69242766080424, 37.32233160780743, -21.91020389040932, -68.3485416402109, -0.04800000227987766, 0.01600000075995922, 1.0240000486373901, 0.0, 0.0, 0.0, 0.0, 0.0, 1.707110496606803E9, 0.0, 2024-02-04 21:21:36.606
84.0, -179.96211591782048, 224.6595302382484, 39.73082717927173, 152.39905324438587, -0.04800000227987766, 0.01600000075995922, 1.0240000486373901, 0.0, 0.0, 0.0, 0.0, 0.0, 1.707110496606803E9, 0.0, 2024-02-04 21:21:36.606
85.0, -19.888787964358926, 149.77738337544724, 157.59003438288346, 157.1636857879348, -0.04800000227987766, 0.01600000075995922, 1.0240000486373901, 0.0, 0.0, 0.0, 0.0, 0.0, 1.707110496609796E9, 0.0, 2024-02-04 21:21:36.609
85.0, -251.92153096524999, 205.77490541199222, 18.37973833223805, -65.2369448770769, -0.04800000227987766, 0.01600000075995922, 1.0240000486373901, 0.0, 0.0, 0.0, 0.0, 0.0, 1.707110496609796E9, 0.0, 2024-02-04 21:21:36.609
86.0, -388.63357384549454, 263.9023004733026, -6.281161975581199, 64.52262398554012, -0.04800000227987766, 0.01600000075995922, 1.0240000486373901, 0.0, 0.0, 0.0, 0.0, 0.0, 1.707110496621474E9, 0.0, 2024-02-04 21:21:36.621
86.0, -544.7781368955038, 482.0805840883404, 129.4547670162283, 198.8897495935671, -0.04800000227987766, 0.01600000075995922, 1.0240000486373901, 0.0, 0.0, 0.0, 0.0, 0.0, 1.707110496621474E9, 0.0, 2024-02-04 21:21:36.621
87.0, -491.6640777247958, 312.48547084769234, 66.73290485935286, -22.890057678800076, -0.04800000227987766, 0.01600000075995922, 1.0240000486373901, 0.0, 0.0, 0.0, 0.0, 0.0, 1.707110496637044E9, 0.0, 2024-02-04 21:21:36.637
87.0, -633.385716595687, 385.89783702790737, -50.56531735090539, -42.50209304643795, -0.04800000227987766, 0.01600000075995922, 1.0240000486373901, 0.0, 0.0, 0.0, 0.0, 0.0, 1.707110496637044E9, 0.0, 2024-02-04 21:21:36.637
88.0, -395.44767156476155, 342.9376062368974, 76.2023315471597, 175.93798356549814, -0.04800000227987766, 0.01600000075995922, 1.0240000486373901, 0.0, 0.0, 0.0, 0.0, 0.0, 1.707110496640391E9, 0.0, 2024-02-04 21:21:36.640
88.0, -236.3560673496686, 291.9010614915751, 100.29476706171408, 44.51789912255481, -0.04800000227987766, 0.01600000075995922, 1.0240000486373901, 0.0, 0.0, 0.0, 0.0, 0.0, 1.707110496640391E9, 0.0, 2024-02-04 21:21:36.640
89.0, -69.66124652465805, 79.3550672098063, -54.9335204991512, -104.19174281554297, -0.04800000227987766, 0.01600000075995922, 1.0240000486373901, 0.0, 0.0, 0.0, 0.0, 0.0, 1.707110496651369E9, 0.0, 2024-02-04 21:21:36.651
89.0, -100.16387056326494, 257.6828468469903, 3.992343202698976, 112.28488631965593, -0.04800000227987766, 0.01600000075995922, 1.0240000486373901, 0.0, 0.0, 0.0, 0.0, 0.0, 1.707110496651369E9, 0.0, 2024-02-04 21:21:36.651
90.0, 82.01226612832397, 187.8533048243262, 111.61544422758743, 112.35594441881403, -0.04800000227987766, 0.01600000075995922, 1.0240000486373901, 0.0, 0.0, 0.0, 0.0, 0.0, 1.707110496666911E9, 0.0, 2024-02-04 21:21:36.666
90.0, -140.2368985884823, 241.67794498661533, -38.50040009384975, -124.66769507294521, -0.04800000227987766, 0.01600000075995922, 1.0240000486373901, 0.0, 0.0, 0.0, 0.0, 0.0, 1.707110496666911E9, 0.0, 2024-02-04 21:21:36.666
91.0, -265.6694032023661, 301.5556132271886, -64.98263168008998, -0.5441554435528815, -0.04800000227987766, 0.01600000075995922, 1.0240000486373901, 0.0, 0.0, 0.0, 0.0, 0.0, 1.707110496669855E9, 0.0, 2024-02-04 21:21:36.669
91.0, -401.532488792669, 521.3981523225084, 61.590542420279235, 115.11599058611318, -0.04800000227987766, 0.01600000075995922, 1.0240000486373901, 0.0, 0.0, 0.0, 0.0, 0.0, 1.707110496669855E9, 0.0, 2024-02-04 21:21:36.669
92.0, -328.6119194566272, 370.741892457474, -6.187664476688951, -110.12322414526716, -0.04800000227987766, 0.01600000075995922, 1.0240000486373901, 0.0, 0.0, 0.0, 0.0, 0.0, 1.707110496681028E9, 0.0, 2024-02-04 21:21:36.681
92.0, -459.4467095565051, 439.8720731884241, -139.2346054003574, -134.73924565361813, -0.04800000227987766, 0.01600000075995922, 1.0240000486373901, 0.0, 0.0, 0.0, 0.0, 0.0, 1.707110496681028E9, 0.0, 2024-02-04 21:21:36.681
93.0, -691.915150902234, 399.3465172685683, -15.043747571762651, 68.6065947371535, -0.04800000227987766, 0.01600000075995922, 1.0240000486373901, 0.0, 0.0, 0.0, 0.0, 0.0, 1.70711049669718E9, 0.0, 2024-02-04 21:21:36.697
93.0, -506.37123430054635, 356.58263122523203, -0.9518045387230814, -66.54590986156836, -0.04800000227987766, 0.01600000075995922, 1.0240000486373901, 0.0, 0.0, 0.0, 0.0, 0.0, 1.70711049669718E9, 0.0, 2024-02-04 21:21:36.697
94.0, -337.3127967035398, 138.8942745043896, -163.15126561699435, -232.8368214913644, -0.04800000227987766, 0.01600000075995922, 1.0240000486373901, 0.0, 0.0, 0.0, 0.0, 0.0, 1.707110496700297E9, 0.0, 2024-02-04 21:21:36.700
94.0, -367.3180140480399, 317.53620573785156, -101.27088095014915, -22.029880688991398, -0.04800000227987766, 0.01600000075995922, 1.0240000486373901, 0.0, 0.0, 0.0, 0.0, 0.0, 1.707110496700297E9, 0.0, 2024-02-04 21:21:36.700
95.0, -172.49727560626343, 247.82260061381385, -3.6445325068198144, -29.58073869952932, -0.04800000227987766, 0.01600000075995922, 1.0240000486373901, 0.0, 0.0, 0.0, 0.0, 0.0, 1.707110496711325E9, 0.0, 2024-02-04 21:21:36.711
95.0, -389.57789858430624, 303.47979175439104, -152.0587223484181, -262.7298418371938, -0.04800000227987766, 0.01600000075995922, 1.0240000486373901, 0.0, 0.0, 0.0, 0.0, 0.0, 1.707110496711325E9, 0.0, 2024-02-04 21:21:36.711
96.0, -521.233596724458, 348.2333045741543, -181.37579810107127, -131.38455539336428, -0.04800000227987766, 0.01600000075995922, 1.0240000486373901, 0.0, 0.0, 0.0, 0.0, 0.0, 1.707110496726933E9, 0.0, 2024-02-04 21:21:36.726
96.0, -661.4013071637601, 563.4047086248174, -48.695367373060435, -8.057614454533905, -0.04800000227987766, 0.01600000075995922, 1.0240000486373901, 0.0, 0.0, 0.0, 0.0, 0.0, 1.707110496726933E9, 0.0, 2024-02-04 21:21:36.726
97.0, -599.8836927926168, 392.95689819427207, -122.50229299860075, -234.60205427045003, -0.04800000227987766, 0.01600000075995922, 1.0240000486373901, 0.0, 0.0, 0.0, 0.0, 0.0, 1.707110496729739E9, 0.0, 2024-02-04 21:21:36.729
97.0, -750.9962204522453, 454.57361991424114, -233.95879147807136, -240.66817199857906, -0.04800000227987766, 0.01600000075995922, 1.0240000486373901, 0.0, 0.0, 0.0, 0.0, 0.0, 1.707110496729739E9, 0.0, 2024-02-04 21:21:36.729
98.0, -517.0523885739967, 411.54981082398444, -104.93224300676957, -26.79077333258465, -0.04800000227987766, 0.01600000075995922, 1.0240000486373901, 0.0, 0.0, 0.0, 0.0, 0.0, 1.707110496741051E9, 0.0, 2024-02-04 21:21:36.741
98.0, -362.01109601091594, 342.7337816893123, -81.04176208982244, -156.66253919387236, -0.04800000227987766, 0.01600000075995922, 1.0240000486373901, 0.0, 0.0, 0.0, 0.0, 0.0, 1.707110496741051E9, 0.0, 2024-02-04 21:21:36.741
99.0, -212.00370878819376, 124.17402827879414, -229.78506312752143, -298.62540161190554, -0.04800000227987766, 0.01600000075995922, 1.0240000486373901, 0.0, 0.0, 0.0, 0.0, 0.0, 1.707110496756664E9, 0.0, 2024-02-04 21:21:36.756
99.0, -267.8965136259794, 294.4797225110233, -155.78366270428523, -70.87671401025727, -0.04800000227987766, 0.01600000075995922, 1.0240000486373901, 0.0, 0.0, 0.0, 0.0, 0.0, 1.707110496756664E9, 0.0, 2024-02-04 21:21:36.756
100.0, -102.77432073233649, 215.05733710201457, -38.193728297483176, -63.213659001048654, -0.04800000227987766, 0.01600000075995922, 1.0240000486373901, 0.0, 0.0, 0.0, 0.0, 0.0, 1.707110496759693E9, 0.0, 2024-02-04 21:21:36.759
100.0, -340.4543126663193, 250.3919118833728, -176.67100395681337, -287.54781794315204, -0.04800000227987766, 0.01600000075995922, 1.0240000486373901, 0.0, 0.0, 0.0, 0.0, 0.0, 1.707110496759693E9, 0.0, 2024-02-04 21:21:36.759
0.0, 479.79550521541387, -185.23163495538756, -199.3927661376074, -143.27556730248034, -0.04800000227987766, 0.01600000075995922, 1.0240000486373901, 0.0, 0.0, 0.0, 0.0, 0.0, 1.707110496771688E9, 0.0, 2024-02-04 21:21:36.771
1.0, 315.8831699574366, 29.457322000991553, -48.21479022875428, -13.69925353769213, -0.04800000227987766, 0.01600000075995922, 1.0240000486373901, 0.0, 0.0, 0.0, 0.0, 0.0, 1.707110496774688E9, 0.0, 2024-02-04 21:21:36.774
1.0, 369.5095954220742, -145.31755267828703, -108.53937651403248, -225.27661373093724, -0.04800000227987766, 0.01600000075995922, 1.0240000486373901, 0.0, 0.0, 0.0, 0.0, 0.0, 1.707110496774688E9, 0.0, 2024-02-04 21:21:36.774
2.0, 192.71517476672307, -89.91654468467459, -217.15355102717876, -221.04304698109627, -0.06400000303983688, 0.01600000075995922, 1.0240000486373901, 0.0, 0.0, 0.0, 0.0, 0.0, 1.70711049678611E9, 0.0, 2024-02-04 21:21:36.786
2.0, 396.72484739962965, -145.9402460209094, -69.11335118114948, 8.362416300922632, -0.06400000303983688, 0.01600000075995922, 1.0240000486373901, 0.0, 0.0, 0.0, 0.0, 0.0, 1.70711049678611E9, 0.0, 2024-02-04 21:21:36.786
3.0, 530.6132658133283, -226.03955332189798, -31.295482829213142, -104.72093865927309, -0.06400000303983688, 0.01600000075995922, 1.0240000486373901, 0.0, 0.0, 0.0, 0.0, 0.0, 1.707110496802019E9, 0.0, 2024-02-04 21:21:36.802
3.0, 623.7031156104058, 2.174751824233681, -159.4431548109278, -215.9941820409149, -0.06400000303983688, 0.01600000075995922, 1.0240000486373901, 0.0, 0.0, 0.0, 0.0, 0.0, 1.707110496802019E9, 0.0, 2024-02-04 21:21:36.802
4.0, 488.7937045088038, 142.3592918133363, -49.8379068095237, -433.1421232181601, -0.06400000303983688, 0.01600000075995922, 1.0240000486373901, 0.0, 0.0, 0.0, 0.0, 0.0, 1.707110496804934E9, 0.0, 2024-02-04 21:21:36.804
4.0, 598.3148047612049, 49.966933357995, 97.61138884350657, -391.8424080074765, -0.06400000303983688, 0.01600000075995922, 1.0240000486373901, 0.0, 0.0, 0.0, 0.0, 0.0, 1.707110496804934E9, 0.0, 2024-02-04 21:21:36.804
5.0, 821.8673246125691, 100.00679476512596, -25.132127702236176, -593.5651318174787, -0.06400000303983688, 0.01600000075995922, 1.0240000486373901, 0.0, 0.0, 0.0, 0.0, 0.0, 1.707110496832499E9, 0.0, 2024-02-04 21:21:36.832
5.0, 608.3900952418335, 138.83256615512073, -22.1589072374627, -435.01955299591646, -0.06400000303983688, 0.01600000075995922, 1.0240000486373901, 0.0, 0.0, 0.0, 0.0, 0.0, 1.707110496832499E9, 0.0, 2024-02-04 21:21:36.832
6.0, 412.79332755925134, 346.59148849360645, 146.31610596645623, -272.412442822475, -0.06400000303983688, 0.01600000075995922, 1.0240000486373901, 0.0, 0.0, 0.0, 0.0, 0.0, 1.707110496835412E9, 0.0, 2024-02-04 21:21:36.835
6.0, 446.1868942636065, 190.08228519791737, 92.4166678050533, -478.3986525819637, -0.06400000303983688, 0.01600000075995922, 1.0240000486373901, 0.0, 0.0, 0.0, 0.0, 0.0, 1.707110496835412E9, 0.0, 2024-02-04 21:21:36.835
7.0, 235.7371139070019, 241.597537137568, -14.780084624886513, -474.7709496249445, -0.06400000303983688, 0.01600000075995922, 1.0240000486373901, 0.0, 0.0, 0.0, 0.0, 0.0, 1.707110496838553E9, 0.0, 2024-02-04 21:21:36.838
7.0, 429.1217307657935, 192.33183502126485, 149.47258152905852, -231.06036901241168, -0.06400000303983688, 0.01600000075995922, 1.0240000486373901, 0.0, 0.0, 0.0, 0.0, 0.0, 1.707110496838553E9, 0.0, 2024-02-04 21:21:36.838
8.0, 560.8372673052363, 139.98258539149538, 192.0214233249426, -330.56788713345304, -0.06400000303983688, 0.01600000075995922, 1.0240000486373901, 0.0, 0.0, 0.0, 0.0, 0.0, 1.707110496846032E9, 0.0, 2024-02-04 21:21:36.846
8.0, 664.9074633722194, -91.96974976034835, 64.93962283059955, -455.0167980589904, -0.06400000303983688, 0.01600000075995922, 1.0240000486373901, 0.0, 0.0, 0.0, 0.0, 0.0, 1.707110496846032E9, 0.0, 2024-02-04 21:21:36.846
9.0, 530.2523654676042, 56.0274412361905, 169.8176372880116, -678.709564158693, -0.06400000303983688, 0.01600000075995922, 1.0240000486373901, 0.0, 0.0, 0.0, 0.0, 0.0, 1.707110496861851E9, 0.0, 2024-02-04 21:21:36.861
9.0, 657.5155511097983, -21.88776449067518, 299.6707036495209, -648.1246623210609, -0.06400000303983688, 0.01600000075995922, 1.0240000486373901, 0.0, 0.0, 0.0, 0.0, 0.0, 1.707110496861851E9, 0.0, 2024-02-04 21:21:36.861
10.0, 877.8442771993577, 29.63309729890898, 173.73331254161894, -855.0383672695607, -0.06400000303983688, 0.01600000075995922, 1.0240000486373901, 0.0, 0.0, 0.0, 0.0, 0.0, 1.707110496864787E9, 0.0, 2024-02-04 21:21:36.864
10.0, 674.9434849033132, 76.46225459408015, 170.65911477804184, -701.1078249933198, -0.06400000303983688, 0.01600000075995922, 1.0240000486373901, 0.0, 0.0, 0.0, 0.0, 0.0, 1.707110496864787E9, 0.0, 2024-02-04 21:21:36.864
11.0, 515.7135043898597, 312.16196950152516, 320.16909530665725, -572.6946201147512, -0.06400000303983688, 0.01600000075995922, 1.0240000486373901, 0.0, 0.0, 0.0, 0.0, 0.0, 1.70711049687632E9, 0.0, 2024-02-04 21:21:36.876
11.0, 588.1665862314403, 168.90697164880112, 250.4910192321986, -801.6138964025304, -0.06400000303983688, 0.01600000075995922, 1.0240000486373901, 0.0, 0.0, 0.0, 0.0, 0.0, 1.70711049687632E9, 0.0, 2024-02-04 21:21:36.876
12.0, 428.2914729756303, 239.4807537626475, 138.8849247545004, -812.7288790708408, -0.04800000227987766, 0.01600000075995922, 1.0240000486373901, 0.0, 0.0, 0.0, 0.0, 0.0, 1.707110496891978E9, 0.0, 2024-02-04 21:21:36.891
12.0, 642.5559512870386, 192.45525171980262, 286.2033239090815, -592.2879559826106, -0.04800000227987766, 0.01600000075995922, 1.0240000486373901, 0.0, 0.0, 0.0, 0.0, 0.0, 1.707110496891978E9, 0.0, 2024-02-04 21:21:36.891
13.0, 798.8463704353198, 146.36285471590236, 304.0015077982098, -713.8608838422224, -0.04800000227987766, 0.01600000075995922, 1.0240000486373901, 0.0, 0.0, 0.0, 0.0, 0.0, 1.707110496895054E9, 0.0, 2024-02-04 21:21:36.895
13.0, 934.0287942336872, -77.17844543559477, 162.53231217432767, -844.7050236919895, -0.04800000227987766, 0.01600000075995922, 1.0240000486373901, 0.0, 0.0, 0.0, 0.0, 0.0, 1.707110496895054E9, 0.0, 2024-02-04 21:21:36.895
14.0, 842.4947428181767, 82.16560202650726, 251.13428202457726, -601.9855165677145, -0.04800000227987766, 0.01600000075995922, 1.0240000486373901, 0.0, 0.0, 0.0, 0.0, 0.0, 1.707110496906048E9, 0.0, 2024-02-04 21:21:36.906
14.0, 1017.7333650919609, 27.55745282350108, 366.9627235522494, -598.6794450068846, -0.04800000227987766, 0.01600000075995922, 1.0240000486373901, 0.0, 0.0, 0.0, 0.0, 0.0, 1.707110496906048E9, 0.0, 2024-02-04 21:21:36.906
15.0, 801.9130883989856, 96.82787980278954, 211.99622898828238, -840.0899871466681, -0.04800000227987766, 0.01600000075995922, 1.0240000486373901, 0.0, 0.0, 0.0, 0.0, 0.0, 1.707110496921689E9, 0.0, 2024-02-04 21:21:36.921
15.0, 644.6802144618705, 153.1077642859891, 197.2049246635288, -702.4242697777227, -0.04800000227987766, 0.01600000075995922, 1.0240000486373901, 0.0, 0.0, 0.0, 0.0, 0.0, 1.707110496921689E9, 0.0, 2024-02-04 21:21:36.921
16.0, 523.7842084942386, 388.8486180929467, 327.02433192543685, -590.7134581012651, -0.04800000227987766, 0.01600000075995922, 1.0240000486373901, 0.0, 0.0, 0.0, 0.0, 0.0, 1.707110496924786E9, 0.0, 2024-02-04 21:21:36.924
16.0, 632.1253703106195, 256.2411154140718, 243.8227776112035, -832.6887251343578, -0.04800000227987766, 0.01600000075995922, 1.0240000486373901, 0.0, 0.0, 0.0, 0.0, 0.0, 1.707110496924786E9, 0.0, 2024-02-04 21:21:36.924
17.0, 479.45330436946824, 316.46659435052425, 120.44721797294915, -846.073827075772, -0.04800000227987766, 0.01600000075995922, 1.0240000486373901, 0.0, 0.0, 0.0, 0.0, 0.0, 1.707110496936288E9, 0.0, 2024-02-04 21:21:36.936
17.0, 237.48177723633125, 284.3595532309264, 247.18494767136872, -645.2711186548695, -0.04800000227987766, 0.01600000075995922, 1.0240000486373901, 0.0, 0.0, 0.0, 0.0, 0.0, 1.707110496936288E9, 0.0, 2024-02-04 21:21:36.936
18.0, 456.14250794565305, 253.2903343490325, 249.12595574837178, -794.7698794836178, -0.04800000227987766, 0.01600000075995922, 1.0240000486373901, 0.0, 0.0, 0.0, 0.0, 0.0, 1.707110496952039E9, 0.0, 2024-02-04 21:21:36.952
18.0, 645.7666553989984, 49.106756368186325, 82.95098101720214, -958.1548888478428, -0.04800000227987766, 0.01600000075995922, 1.0240000486373901, 0.0, 0.0, 0.0, 0.0, 0.0, 1.707110496952039E9, 0.0, 2024-02-04 21:21:36.952
19.0, 601.5423384229653, 217.64721782132983, 143.86273159552366, -744.860914574936, -0.04800000227987766, 0.01600000075995922, 1.0240000486373901, 0.0, 0.0, 0.0, 0.0, 0.0, 1.707110496955264E9, 0.0, 2024-02-04 21:21:36.955
19.0, 832.8345812326297, 171.66327791614458, 230.68824896682054, -768.6952969925478, -0.04800000227987766, 0.01600000075995922, 1.0240000486373901, 0.0, 0.0, 0.0, 0.0, 0.0, 1.707110496955264E9, 0.0, 2024-02-04 21:21:36.955
20.0, 653.4671094077639, 229.74392422800884, 63.51846084743738, -1010.917397422716, -0.04800000227987766, 0.01600000075995922, 1.0240000486373901, 0.0, 0.0, 0.0, 0.0, 0.0, 1.707110496982536E9, 0.0, 2024-02-04 21:21:36.982
20.0, 505.9729349552654, 272.11138087604195, 48.60373982414603, -874.3063318412751, -0.04800000227987766, 0.01600000075995922, 1.0240000486373901, 0.0, 0.0, 0.0, 0.0, 0.0, 1.707110496982536E9, 0.0, 2024-02-04 21:21:36.982
21.0, 393.55154228722677, 491.9352204715833, 175.32650992274284, -759.9327113963664, -0.04800000227987766, 0.01600000075995922, 1.0240000486373901, 0.0, 0.0, 0.0, 0.0, 0.0, 1.707110496985442E9, 0.0, 2024-02-04 21:21:36.985
21.0, 499.1850165356882, 342.4308497929014, 84.95182749349624, -995.4155121063814, -0.04800000227987766, 0.01600000075995922, 1.0240000486373901, 0.0, 0.0, 0.0, 0.0, 0.0, 1.707110496985442E9, 0.0, 2024-02-04 21:21:36.985
22.0, 337.0472638066858, 395.0493722194806, -33.232751006260514, -1006.3434997769073, -0.04800000227987766, 0.01600000075995922, 1.0240000486373901, 0.0, 0.0, 0.0, 0.0, 0.0, 1.707110496988495E9, 0.0, 2024-02-04 21:21:36.988
22.0, 581.8779444559477, 356.2703495789319, 102.26008448842913, -796.2546197660267, -0.04800000227987766, 0.01600000075995922, 1.0240000486373901, 0.0, 0.0, 0.0, 0.0, 0.0, 1.707110496988495E9, 0.0, 2024-02-04 21:21:36.988
23.0, 789.3750737975352, 313.29328923812136, 94.99719877447933, -947.1670627780259, -0.04800000227987766, 0.01600000075995922, 1.0240000486373901, 0.0, 0.0, 0.0, 0.0, 0.0, 1.707110496996263E9, 0.0, 2024-02-04 21:21:36.996
23.0, 955.789402125869, 92.93090404896066, -61.330619373358786, -1097.1669702008367, -0.04800000227987766, 0.01600000075995922, 1.0240000486373901, 0.0, 0.0, 0.0, 0.0, 0.0, 1.707110496996263E9, 0.0, 2024-02-04 21:21:36.996
24.0, 893.4190905648284, 253.3408229984343, 17.229719095863402, -870.0241463920102, -0.04800000227987766, 0.01600000075995922, 1.0240000486373901, 0.0, 0.0, 0.0, 0.0, 0.0, 1.707110497012022E9, 0.0, 2024-02-04 21:21:37.012
24.0, 1111.9545346256346, 202.97746024513617, 107.2715504290536, -884.112349525094, -0.04800000227987766, 0.01600000075995922, 1.0240000486373901, 0.0, 0.0, 0.0, 0.0, 0.0, 1.707110497012022E9, 0.0, 2024-02-04 21:21:37.012
25.0, 906.5648389090784, 251.67469756817445, -52.489495878107846, -1120.0327185299248, -0.04800000227987766, 0.01600000075995922, 1.0240000486373901, 0.0, 0.0, 0.0, 0.0, 0.0, 1.70711049701527E9, 0.0, 2024-02-04 21:21:37.015
25.0, 744.5074940291233, 296.9293569820002, -66.29720651451498, -977.1348811229691, -0.04800000227987766, 0.01600000075995922, 1.0240000486373901, 0.0, 0.0, 0.0, 0.0, 0.0, 1.70711049701527E9, 0.0, 2024-02-04 21:21:37.015
26.0, 618.3232695241459, 520.8109880294651, 69.01611378230155, -862.6864626789466, -0.04800000227987766, 0.01600000075995922, 1.0240000486373901, 0.0, 0.0, 0.0, 0.0, 0.0, 1.707110497025999E9, 0.0, 2024-02-04 21:21:37.025
26.0, 719.6296795238741, 367.1628081998788, -21.242631748318672, -1096.0936189135537, -0.04800000227987766, 0.01600000075995922, 1.0240000486373901, 0.0, 0.0, 0.0, 0.0, 0.0, 1.707110497025999E9, 0.0, 2024-02-04 21:21:37.025
27.0, 542.1059783771634, 417.09982235822827, -131.8800921374932, -1100.1663699653, -0.04800000227987766, 0.01600000075995922, 1.0240000486373901, 0.0, 0.0, 0.0, 0.0, 0.0, 1.707110497041789E9, 0.0, 2024-02-04 21:21:37.041
27.0, 771.0308645148762, 373.1073791794479, 6.84027701895684, -882.399475345388, -0.04800000227987766, 0.01600000075995922, 1.0240000486373901, 0.0, 0.0, 0.0, 0.0, 0.0, 1.707110497041789E9, 0.0, 2024-02-04 21:21:37.041
28.0, 974.5337807037868, 333.04744080407545, 9.622762585990131, -1033.338097657077, -0.04800000227987766, 0.01600000075995922, 1.0240000486373901, 0.0, 0.0, 0.0, 0.0, 0.0, 1.70711049704467E9, 0.0, 2024-02-04 21:21:37.044
28.0, 1125.2667085179128, 108.12985746888444, -142.83425910770893, -1178.4836149374023, -0.04800000227987766, 0.01600000075995922, 1.0240000486373901, 0.0, 0.0, 0.0, 0.0, 0.0, 1.70711049704467E9, 0.0, 2024-02-04 21:21:37.044
29.0, 1049.5337344151922, 270.48452439531684, -58.79122730344534, -939.2122955722734, -0.04800000227987766, 0.01600000075995922, 1.0240000486373901, 0.0, 0.0, 0.0, 0.0, 0.0, 1.70711049705595E9, 0.0, 2024-02-04 21:21:37.055
29.0, 1256.5652462122962, 211.4857326443307, 36.51264326740056, -954.3476706929505, -0.04800000227987766, 0.01600000075995922, 1.0240000486373901, 0.0, 0.0, 0.0, 0.0, 0.0, 1.70711049705595E9, 0.0, 2024-02-04 21:21:37.055
30.0, 1038.7553427428938, 259.1769368792884, -118.83158119209111, -1182.5114871896803, -0.04800000227987766, 0.01600000075995922, 1.0240000486373901, 0.0, 0.0, 0.0, 0.0, 0.0, 1.707110497071671E9, 0.0, 2024-02-04 21:21:37.071
30.0, 862.9650852256455, 307.08692526165396, -123.00156964268535, -1035.7278937287629, -0.04800000227987766, 0.01600000075995922, 1.0240000486373901, 0.0, 0.0, 0.0, 0.0, 0.0, 1.707110497071671E9, 0.0, 2024-02-04 21:21:37.071
31.0, 733.729102356825, 531.7464554999024, 19.75789146590978, -917.6442925278097, -0.04800000227987766, 0.01600000075995922, 1.0240000486373901, 0.0, 0.0, 0.0, 0.0, 0.0, 1.707110497074849E9, 0.0, 2024-02-04 21:21:37.074
31.0, 834.4034692640416, 381.6399609283544, -76.76144659053534, -1154.6978512192145, -0.04800000227987766, 0.01600000075995922, 1.0240000486373901, 0.0, 0.0, 0.0, 0.0, 0.0, 1.707110497074849E9, 0.0, 2024-02-04 21:21:37.074
32.0, 655.4249470345676, 437.87122671213, -185.07642910722643, -1151.3805599585176, -0.04800000227987766, 0.01600000075995922, 1.0240000486373901, 0.0, 0.0, 0.0, 0.0, 0.0, 1.707110497086369E9, 0.0, 2024-02-04 21:21:37.086
32.0, 888.7068166206591, 402.5665711304173, -45.12189296539873, -941.7853467417881, -0.04800000227987766, 0.01600000075995922, 1.0240000486373901, 0.0, 0.0, 0.0, 0.0, 0.0, 1.707110497086369E9, 0.0, 2024-02-04 21:21:37.086
33.0, 1118.5760274971835, 374.40325451409444, -51.09451319463551, -1098.0121875908226, -0.04800000227987766, 0.01600000075995922, 1.0240000486373901, 0.0, 0.0, 0.0, 0.0, 0.0, 1.707110497101983E9, 0.0, 2024-02-04 21:21:37.101
33.0, 1277.529255413916, 149.9419389734976, -212.34029978420585, -1252.455096160993, -0.04800000227987766, 0.01600000075995922, 1.0240000486373901, 0.0, 0.0, 0.0, 0.0, 0.0, 1.707110497101983E9, 0.0, 2024-02-04 21:21:37.101
34.0, 1204.597466378007, 322.9291414739564, -129.31078086793423, -1018.4495559334755, -0.04800000227987766, 0.01600000075995922, 1.0240000486373901, 0.0, 0.0, 0.0, 0.0, 0.0, 1.707110497105339E9, 0.0, 2024-02-04 21:21:37.105
34.0, 1431.891756135039, 262.5241473396309, -40.432058420963585, -1042.2689787512645, -0.04800000227987766, 0.01600000075995922, 1.0240000486373901, 0.0, 0.0, 0.0, 0.0, 0.0, 1.707110497105339E9, 0.0, 2024-02-04 21:21:37.105
35.0, 1223.569978853222, 315.7279641092755, -196.40458607301116, -1279.771325437352, -0.04800000227987766, 0.01600000075995922, 1.0240000486373901, 0.0, 0.0, 0.0, 0.0, 0.0, 1.707110497116046E9, 0.0, 2024-02-04 21:21:37.116
35.0, 1036.993849863764, 361.648325715214, -205.55986116454005, -1123.757658885792, -0.04800000227987766, 0.01600000075995922, 1.0240000486373901, 0.0, 0.0, 0.0, 0.0, 0.0, 1.707110497116046E9, 0.0, 2024-02-04 21:21:37.116
36.0, 918.5287788673304, 585.0736889680848, -71.74998064991087, -1008.0488941567019, -0.04800000227987766, 0.01600000075995922, 1.0240000486373901, 0.0, 0.0, 0.0, 0.0, 0.0, 1.707110497131801E9, 0.0, 2024-02-04 21:21:37.131
36.0, 1027.0531957815401, 428.1530966772698, -162.77540567144752, -1251.0002750782296, -0.04800000227987766, 0.01600000075995922, 1.0240000486373901, 0.0, 0.0, 0.0, 0.0, 0.0, 1.707110497131801E9, 0.0, 2024-02-04 21:21:37.131
37.0, 832.3558740383014, 480.43502810783684, -267.10365483537316, -1242.8360734749585, -0.04800000227987766, 0.01600000075995922, 1.0240000486373901, 0.0, 0.0, 0.0, 0.0, 0.0, 1.707110497134691E9, 0.0, 2024-02-04 21:21:37.134
37.0, 1057.858751716558, 438.19659800827503, -126.88358579669148, -1026.512780237943, -0.04800000227987766, 0.01600000075995922, 1.0240000486373901, 0.0, 0.0, 0.0, 0.0, 0.0, 1.707110497134691E9, 0.0, 2024-02-04 21:21:37.134
38.0, 1280.554834478069, 399.5391221162863, -124.65834532305598, -1181.6288708001375, -0.04800000227987766, 0.01600000075995922, 1.0240000486373901, 0.0, 0.0, 0.0, 0.0, 0.0, 1.707110497146031E9, 0.0, 2024-02-04 21:21:37.146
38.0, 1422.7832297929563, 173.63420519279316, -285.44412421807647, -1324.0667005125433, -0.04800000227987766, 0.01600000075995922, 1.0240000486373901, 0.0, 0.0, 0.0, 0.0, 0.0, 1.707110497146031E9, 0.0, 2024-02-04 21:21:37.146
39.0, 1336.4663388156332, 352.84460121952, -197.66119245812297, -1085.812633935362, -0.04800000227987766, 0.01600000075995922, 1.0240000486373901, 0.0, 0.0, 0.0, 0.0, 0.0, 1.707110497161723E9, 0.0, 2024-02-04 21:21:37.161
39.0, 1566.2289625434205, 299.7847705981694, -100.73420530650765, -1106.8308716863394, -0.04800000227987766, 0.01600000075995922, 1.0240000486373901, 0.0, 0.0, 0.0, 0.0, 0.0, 1.707110497161723E9, 0.0, 2024-02-04 21:21:37.161
40.0, 1356.923591573257, 338.05142694478855, -267.17845283448696, -1346.6706558447331, -0.04800000227987766, 0.01600000075995922, 1.0240000486373901, 0.0, 0.0, 0.0, 0.0, 0.0, 1.707110497164802E9, 0.0, 2024-02-04 21:21:37.164
40.0, 1175.6805599206127, 386.0810921257362, -272.14130007568747, -1195.6534956339747, -0.04800000227987766, 0.01600000075995922, 1.0240000486373901, 0.0, 0.0, 0.0, 0.0, 0.0, 1.707110497164802E9, 0.0, 2024-02-04 21:21:37.164
41.0, 1053.1202984726988, 617.4425230845809, -136.05382048804313, -1076.9041922409087, -0.04800000227987766, 0.01600000075995922, 1.0240000486373901, 0.0, 0.0, 0.0, 0.0, 0.0, 1.707110497176094E9, 0.0, 2024-02-04 21:21:37.176
41.0, 1173.4366199471988, 458.95491271233186, -233.61285073217005, -838.7641926123761, -0.04800000227987766, 0.01600000075995922, 1.0240000486373901, 0.0, 0.0, 0.0, 0.0, 0.0, 1.707110497176094E9, 0.0, 2024-02-04 21:21:37.176
42.0, 984.9849311299622, 504.3068095250055, -341.3481487557292, -830.9627613048069, -0.04800000227987766, 0.01600000075995922, 1.0240000486373901, 0.0, 0.0, 0.0, 0.0, 0.0, 1.707110497192007E9, 0.0, 2024-02-04 21:21:37.192
42.0, 1215.9144036439247, 469.5107803372666, -191.99150412529707, -613.6483945795335, -0.04800000227987766, 0.01600000075995922, 1.0240000486373901, 0.0, 0.0, 0.0, 0.0, 0.0, 1.707110497192007E9, 0.0, 2024-02-04 21:21:37.192
43.0, 1433.303568368312, 420.6658169659786, -200.55961492378265, -769.6022227318026, -0.04800000227987766, 0.01600000075995922, 1.0240000486373901, 0.0, 0.0, 0.0, 0.0, 0.0, 1.707110497195168E9, 0.0, 2024-02-04 21:21:37.195
43.0, 1579.4139798372053, 186.58173883939162, -351.06814874056727, -910.574011661578, -0.04800000227987766, 0.01600000075995922, 1.0240000486373901, 0.0, 0.0, 0.0, 0.0, 0.0, 1.707110497195168E9, 0.0, 2024-02-04 21:21:37.195
44.0, 1474.8538568760268, 344.47844501864165, -264.126694470644, -667.1364437458105, -0.04800000227987766, 0.01600000075995922, 1.0240000486373901, 0.0, 0.0, 0.0, 0.0, 0.0, 1.707110497206067E9, 0.0, 2024-02-04 21:21:37.206
44.0, 1689.3689084844664, 277.6969214598648, -167.80183121189475, -689.7890177774243, -0.04800000227987766, 0.01600000075995922, 1.0240000486373901, 0.0, 0.0, 0.0, 0.0, 0.0, 1.707110497206067E9, 0.0, 2024-02-04 21:21:37.206
45.0, 1461.6370504326187, 312.5714885466732, -313.01840659137815, -905.8879170170985, -0.04800000227987766, 0.01600000075995922, 1.0240000486373901, 0.0, 0.0, 0.0, 0.0, 0.0, 1.707110497221587E9, 0.0, 2024-02-04 21:21:37.221
45.0, 1241.1138495453633, 342.6384142404422, -306.08463207352906, -743.2995063434355, -0.04800000227987766, 0.01600000075995922, 1.0240000486373901, 0.0, 0.0, 0.0, 0.0, 0.0, 1.707110497221587E9, 0.0, 2024-02-04 21:21:37.221
46.0, 1085.3283168911003, 555.4723808187991, -150.38885701820254, -604.018152193632, -0.04800000227987766, 0.01600000075995922, 1.0240000486373901, 0.0, 0.0, 0.0, 0.0, 0.0, 1.707110497224791E9, 0.0, 2024-02-04 21:21:37.224
46.0, 1161.3567430903204, 380.55538994120434, -235.2247476130724, -831.3105720006861, -0.04800000227987766, 0.01600000075995922, 1.0240000486373901, 0.0, 0.0, 0.0, 0.0, 0.0, 1.707110497224791E9, 0.0, 2024-02-04 21:21:37.224
47.0, 921.283215184696, 417.81414324976504, -319.4061557156965, -793.7694562454708, -0.04800000227987766, 0.01600000075995922, 1.0240000486373901, 0.0, 0.0, 0.0, 0.0, 0.0, 1.707110497235937E9, 0.0, 2024-02-04 21:21:37.235
47.0, 1098.657320333179, 369.4310575230047, -150.54219291638583, -551.1995451194234, -0.04800000227987766, 0.01600000075995922, 1.0240000486373901, 0.0, 0.0, 0.0, 0.0, 0.0, 1.707110497235937E9, 0.0, 2024-02-04 21:21:37.235
48.0, 1278.034141907934, 321.25927614374086, -134.4307039072737, -687.7470324016176, -0.04800000227987766, 0.01600000075995922, 1.0240000486373901, 0.0, 0.0, 0.0, 0.0, 0.0, 1.70711049725181E9, 0.0, 2024-02-04 21:21:37.251
48.0, 1381.3900170833804, 85.06589444214478, -272.9902573656291, -811.5825997344218, -0.04800000227987766, 0.01600000075995922, 1.0240000486373901, 0.0, 0.0, 0.0, 0.0, 0.0, 1.70711049725181E9, 0.0, 2024-02-04 21:21:37.251
49.0, 1246.9630530760624, 246.17517468333244, -160.65114249661565, -1039.8006447805092, -0.04800000227987766, 0.01600000075995922, 1.0240000486373901, 0.0, 0.0, 0.0, 0.0, 0.0, 1.707110497254804E9, 0.0, 2024-02-04 21:21:37.254
49.0, 1451.0250843083486, 197.5546053093858, -53.51048856601119, -1050.5678167529404, -0.04800000227987766, 0.01600000075995922, 1.0240000486373901, 0.0, 0.0, 0.0, 0.0, 0.0, 1.707110497254804E9, 0.0, 2024-02-04 21:21:37.254
50.0, 1213.7452616696246, 240.75418969755992, -203.01298929471523, -1274.718720597215, -0.04800000227987766, 0.01600000075995922, 1.0240000486373901, 0.0, 0.0, 0.0, 0.0, 0.0, 1.707110497266201E9, 0.0, 2024-02-04 21:21:37.266
50.0, 994.527285866905, 287.2130968971178, -191.18368573486805, -1110.8363045388833, -0.04800000227987766, 0.01600000075995922, 1.0240000486373901, 0.0, 0.0, 0.0, 0.0, 0.0, 1.707110497266201E9, 0.0, 2024-02-04 21:21:37.266
51.0, 861.2073322464712, 515.275936095044, -45.34628696274012, -988.7510103853419, -0.04800000227987766, 0.01600000075995922, 1.0240000486373901, 0.0, 0.0, 0.0, 0.0, 0.0, 1.707110497282096E9, 0.0, 2024-02-04 21:21:37.282
51.0, 968.9800292695872, 368.6849474818446, -143.23068850301206, -1229.2190977362916, -0.04800000227987766, 0.01600000075995922, 1.0240000486373901, 0.0, 0.0, 0.0, 0.0, 0.0, 1.707110497282096E9, 0.0, 2024-02-04 21:21:37.282
52.0, 753.0101565783843, 419.84864882566035, -237.13957639038563, -1210.676673755981, -0.04800000227987766, 0.01600000075995922, 1.0240000486373901, 0.0, 0.0, 0.0, 0.0, 0.0, 1.707110497285055E9, 0.0, 2024-02-04 21:21:37.285
52.0, 965.9507103054784, 385.890357227996, -84.16644850280136, -991.5708949519321, -0.04800000227987766, 0.01600000075995922, 1.0240000486373901, 0.0, 0.0, 0.0, 0.0, 0.0, 1.707110497285055E9, 0.0, 2024-02-04 21:21:37.285
53.0, 1186.7656233892776, 353.65428955992684, -92.27455160673708, -1148.227824295871, -0.04800000227987766, 0.01600000075995922, 1.0240000486373901, 0.0, 0.0, 0.0, 0.0, 0.0, 1.707110497296024E9, 0.0, 2024-02-04 21:21:37.296
53.0, 1324.1246689618565, 120.30697172461078, -239.69018816016614, -1281.760952213779, -0.04800000227987766, 0.01600000075995922, 1.0240000486373901, 0.0, 0.0, 0.0, 0.0, 0.0, 1.707110497296024E9, 0.0, 2024-02-04 21:21:37.296
54.0, 1217.455242425669, 289.4719964703545, -138.3613387607038, -1039.707147281617, -0.04800000227987766, 0.01600000075995922, 1.0240000486373901, 0.0, 0.0, 0.0, 0.0, 0.0, 1.707110497311792E9, 0.0, 2024-02-04 21:21:37.311
54.0, 1457.4876314317808, 241.86493998439983, -51.62931888829917, -1066.9560583587736, -0.04800000227987766, 0.01600000075995922, 1.0240000486373901, 0.0, 0.0, 0.0, 0.0, 0.0, 1.707110497311792E9, 0.0, 2024-02-04 21:21:37.311
55.0, 1251.0619834274985, 297.99709841934964, -213.52210817020386, -1299.1701865075156, -0.04800000227987766, 0.01600000075995922, 1.0240000486373901, 0.0, 0.0, 0.0, 0.0, 0.0, 1.707110497314798E9, 0.0, 2024-02-04 21:21:37.314
55.0, 1060.6113180839457, 352.11906062811613, -212.51607508212328, -1148.6653925906867, -0.04800000227987766, 0.01600000075995922, 1.0240000486373901, 0.0, 0.0, 0.0, 0.0, 0.0, 1.707110497314798E9, 0.0, 2024-02-04 21:21:37.314
56.0, 953.2238307562657, 590.3843469051644, -85.1126431915909, -1039.0526647893712, -0.04800000227987766, 0.01600000075995922, 1.0240000486373901, 0.0, 0.0, 0.0, 0.0, 0.0, 1.707110497326125E9, 0.0, 2024-02-04 21:21:37.326
56.0, 1083.3274704148062, 445.5959900706075, -188.84998816251755, -802.1580518460833, -0.04800000227987766, 0.01600000075995922, 1.0240000486373901, 0.0, 0.0, 0.0, 0.0, 0.0, 1.707110497326125E9, 0.0, 2024-02-04 21:21:37.326
57.0, 888.7012067707255, 498.5249241935089, -293.144578226842, -788.3092023101635, -0.04800000227987766, 0.01600000075995922, 1.0240000486373901, 0.0, 0.0, 0.0, 0.0, 0.0, 1.707110497341962E9, 0.0, 2024-02-04 21:21:37.341
57.0, 1129.3618989693932, 469.79127283394337, -154.48778736963868, -589.5709186648019, -0.04800000227987766, 0.01600000075995922, 1.0240000486373901, 0.0, 0.0, 0.0, 0.0, 0.0, 1.707110497341962E9, 0.0, 2024-02-04 21:21:37.341
58.0, 889.0228381669149, 438.8492105505429, -172.936713851057, -758.8238310595043, -0.04800000227987766, 0.01600000075995922, 1.0240000486373901, 0.0, 0.0, 0.0, 0.0, 0.0, 1.707110497344979E9, 0.0, 2024-02-04 21:21:37.344
58.0, 1041.3751426618546, 207.1212693960406, -330.79789098072797, -907.5259931976907, -0.04800000227987766, 0.01600000075995922, 1.0240000486373901, 0.0, 0.0, 0.0, 0.0, 0.0, 1.707110497344979E9, 0.0, 2024-02-04 21:21:37.344
59.0, 951.6100639253855, 379.42781010456383, -247.6786144655198, -674.4479481591843, -0.04800000227987766, 0.01600000075995922, 1.0240000486373901, 0.0, 0.0, 0.0, 0.0, 0.0, 1.707110497356303E9, 0.0, 2024-02-04 21:21:37.356
59.0, 719.3585367770866, 329.00086905201897, -165.2250401424244, -706.2894563819282, -0.04800000227987766, 0.01600000075995922, 1.0240000486373901, 0.0, 0.0, 0.0, 0.0, 0.0, 1.707110497356303E9, 0.0, 2024-02-04 21:21:37.356
60.0, 511.72116118716076, 362.7534661521204, -324.2755054580048, -936.8692482500337, -0.04800000227987766, 0.01600000075995922, 1.0240000486373901, 0.0, 0.0, 0.0, 0.0, 0.0, 1.707110497372111E9, 0.0, 2024-02-04 21:21:37.372
60.0, 305.17770633427426, 403.68854111712426, -324.8140510516241, -779.6513339127414, -0.04800000227987766, 0.01600000075995922, 1.0240000486373901, 0.0, 0.0, 0.0, 0.0, 0.0, 1.707110497372111E9, 0.0, 2024-02-04 21:21:37.372
61.0, 183.63469767430797, 631.3512110197917, -184.37706781551242, -663.7106953863986, -0.04800000227987766, 0.01600000075995922, 1.0240000486373901, 0.0, 0.0, 0.0, 0.0, 0.0, 1.707110497374996E9, 0.0, 2024-02-04 21:21:37.374
61.0, 309.48233118327335, 463.62978765694425, -279.40792568959296, -908.0495791914873, -0.04800000227987766, 0.01600000075995922, 1.0240000486373901, 0.0, 0.0, 0.0, 0.0, 0.0, 1.707110497374996E9, 0.0, 2024-02-04 21:21:37.374
62.0, 84.64889559708536, 511.5360361393541, -381.94102287478745, -890.3748120008968, -0.04800000227987766, 0.01600000075995922, 1.0240000486373901, 0.0, 0.0, 0.0, 0.0, 0.0, 1.707110497386378E9, 0.0, 2024-02-04 21:21:37.386
62.0, 309.4224927839823, 488.50199231226, -240.90565564576536, -674.1674556625076, -0.04800000227987766, 0.01600000075995922, 1.0240000486373901, 0.0, 0.0, 0.0, 0.0, 0.0, 1.707110497386378E9, 0.0, 2024-02-04 21:21:37.386
63.0, 552.3215151061304, 423.98310822667554, -239.54807196184993, -829.6388367204927, -0.04800000227987766, 0.01600000075995922, 1.0240000486373901, 0.0, 0.0, 0.0, 0.0, 0.0, 1.707110497401809E9, 0.0, 2024-02-04 21:21:37.401
63.0, 683.146955456119, 178.9598227296956, -394.58188472501934, -972.3010604302399, -0.04800000227987766, 0.01600000075995922, 1.0240000486373901, 0.0, 0.0, 0.0, 0.0, 0.0, 1.707110497401809E9, 0.0, 2024-02-04 21:21:37.401
64.0, 561.5441083968617, 383.5828389553353, -307.7040087543428, -733.7141427570023, -0.04800000227987766, 0.01600000075995922, 1.0240000486373901, 0.0, 0.0, 0.0, 0.0, 0.0, 1.707110497404793E9, 0.0, 2024-02-04 21:21:37.404
64.0, 317.9382449830882, 322.51962242880836, -207.92721783649176, -754.7398603078909, -0.04800000227987766, 0.01600000075995922, 1.0240000486373901, 0.0, 0.0, 0.0, 0.0, 0.0, 1.707110497404793E9, 0.0, 2024-02-04 21:21:37.404
65.0, 100.4200537102297, 324.0716809104197, -354.3630006015301, -973.7035229136236, -0.04800000227987766, 0.01600000075995922, 1.0240000486373901, 0.0, 0.0, 0.0, 0.0, 0.0, 1.707110497415942E9, 0.0, 2024-02-04 21:21:37.415
65.0, 340.4038240169175, 379.05756000895053, -353.89177320711315, -814.8176131960936, -0.04800000227987766, 0.01600000075995922, 1.0240000486373901, 0.0, 0.0, 0.0, 0.0, 0.0, 1.707110497415942E9, 0.0, 2024-02-04 21:21:37.415
66.0, 188.519007016439, 594.6403530547395, -200.90368571970612, -670.3602375076152, -0.04800000227987766, 0.01600000075995922, 1.0240000486373901, 0.0, 0.0, 0.0, 0.0, 0.0, 1.707110497431643E9, 0.0, 2024-02-04 21:21:37.431
66.0, 288.83434352790937, 374.6089490116574, -270.8734739907086, -894.642037850339, -0.04800000227987766, 0.01600000075995922, 1.0240000486373901, 0.0, 0.0, 0.0, 0.0, 0.0, 1.707110497431643E9, 0.0, 2024-02-04 21:21:37.431
67.0, 497.546940355096, 419.093189034611, -356.498483476229, -852.1418147538789, -0.04800000227987766, 0.01600000075995922, 1.0240000486373901, 0.0, 0.0, 0.0, 0.0, 0.0, 1.707110497434798E9, 0.0, 2024-02-04 21:21:37.434
67.0, 645.1252625565976, 384.9217231394723, -190.316028945148, -610.4470402174629, -0.04800000227987766, 0.01600000075995922, 1.0240000486373901, 0.0, 0.0, 0.0, 0.0, 0.0, 1.707110497434798E9, 0.0, 2024-02-04 21:21:37.434
68.0, 839.3906258549541, 273.751327006612, -156.38765654712915, -738.3815379017033, -0.04800000227987766, 0.01600000075995922, 1.0240000486373901, 0.0, 0.0, 0.0, 0.0, 0.0, 1.707110497446353E9, 0.0, 2024-02-04 21:21:37.446
68.0, 907.6737192459404, 497.50767140556127, -283.7312500383705, -837.2383134304546, -0.04800000227987766, 0.01600000075995922, 1.0240000486373901, 0.0, 0.0, 0.0, 0.0, 0.0, 1.707110497446353E9, 0.0, 2024-02-04 21:21:37.446
69.0, 709.874150489457, 697.6689869840629, -169.26039219461381, -1052.5537036294118, -0.04800000227987766, 0.01600000075995922, 1.0240000486373901, 0.0, 0.0, 0.0, 0.0, 0.0, 1.70711049746209E9, 0.0, 2024-02-04 21:21:37.462
69.0, 911.5576053499244, 617.7604145808145, -35.199938382953405, -1043.5068856365979, -0.04800000227987766, 0.01600000075995922, 1.0240000486373901, 0.0, 0.0, 0.0, 0.0, 0.0, 1.70711049746209E9, 0.0, 2024-02-04 21:21:37.462
70.0, 1142.5525261131115, 616.9750355901197, -158.98688701633364, -1241.0371815962717, -0.04800000227987766, 0.01600000075995922, 1.0240000486373901, 0.0, 0.0, 0.0, 0.0, 0.0, 1.70711049746542E9, 0.0, 2024-02-04 21:21:37.465
70.0, 1334.7702941857278, 702.8038696232252, -147.83076544851065, -1059.0461699524894, -0.04800000227987766, 0.01600000075995922, 1.0240000486373901, 0.0, 0.0, 0.0, 0.0, 0.0, 1.70711049746542E9, 0.0, 2024-02-04 21:21:37.465
71.0, 1161.0930801434442, 916.808424887713, 25.550996497273445, -916.9524110360071, -0.04800000227987766, 0.0, 1.0240000486373901, 0.0, 0.0, 0.0, 0.0, 0.0, 1.70711049747613E9, 0.0, 2024-02-04 21:21:37.476
