%OpenBCI Raw EXG Data
%Number of channels = 4
%Sample Rate = 200 Hz
%Board = OpenBCI_GUI$BoardGanglionBLE
Sample Index, EXG Channel 0, EXG Channel 1, EXG Channel 2, EXG Channel 3, Accel Channel 0, Accel Channel 1, Accel Channel 2, Other, Other, Other, Other, Other, Timestamp, Other, Timestamp (Formatted)
2.0, 126.52455540094525, -230.5330431186594, -214.27382806129754, 101.12876475183293, -0.04800000227987766, 0.0, 0.0, 0.0, 0.0, 0.0, 0.0, 0.0, 1.709014493824418E9, 0.0, 2024-02-26 22:14:53.824
2.0, 136.69521333044395, -381.1893029836938, -196.4980835719034, 27.204032277688384, -0.04800000227987766, 0.0, 0.0, 0.0, 0.0, 0.0, 0.0, 0.0, 1.709014493824418E9, 0.0, 2024-02-26 22:14:53.824
3.0, 23.01160442736, -497.66848710365593, -321.10033039562404, -178.0454171905294, -0.04800000227987766, 0.0, 0.0, 0.0, 0.0, 0.0, 0.0, 0.0, 1.709014493827357E9, 0.0, 2024-02-26 22:14:53.827
3.0, 160.68480159621686, -328.8811922534369, -242.77373567363247, 50.45312035223469, -0.04800000227987766, 0.0, 0.0, 0.0, 0.0, 0.0, 0.0, 0.0, 1.709014493827357E9, 0.0, 2024-02-26 22:14:53.827
4.0, 113.51344345510006, -506.1244009034708, -346.77848349139094, 223.25519780488685, -0.04800000227987766, 0.0, 0.0, 0.0, 0.0, 0.0, 0.0, 0.0, 1.709014493835435E9, 0.0, 2024-02-26 22:14:53.835
4.0, 131.42195439292118, -295.8653554446064, -197.7995687564835, 54.63245855271816, -0.04800000227987766, 0.0, 0.0, 0.0, 0.0, 0.0, 0.0, 0.0, 1.709014493835435E9, 0.0, 2024-02-26 22:14:53.835
5.0, 373.1990067283623, -117.59367430675775, -151.47155805537477, 212.73859912948683, -0.04800000227987766, 0.0, 0.0, 0.0, 0.0, 0.0, 0.0, 0.0, 1.709014493850877E9, 0.0, 2024-02-26 22:14:53.850
5.0, 253.60822584526613, -47.19379754085094, -78.12464012438431, 346.2305881478824, -0.04800000227987766, 0.0, 0.0, 0.0, 0.0, 0.0, 0.0, 0.0, 1.709014493850877E9, 0.0, 2024-02-26 22:14:53.850
6.0, 434.96158454660326, -173.7651016912423, -125.41380511410534, 156.3352979477495, -0.04800000227987766, 0.0, 0.0, 0.0, 0.0, 0.0, 0.0, 0.0, 1.709014493853996E9, 0.0, 2024-02-26 22:14:53.853
6.0, 484.36566296126693, -10.213666778989136, -3.7679492053575814, -6.5410850225016475, -0.04800000227987766, 0.0, 0.0, 0.0, 0.0, 0.0, 0.0, 0.0, 1.709014493853996E9, 0.0, 2024-02-26 22:14:53.853
7.0, 608.5939197894186, -237.5416156356223, -220.491411737632, 96.59226610558107, -0.04800000227987766, 0.0, 0.0, 0.0, 0.0, 0.0, 0.0, 0.0, 1.709014493898097E9, 0.0, 2024-02-26 22:14:53.898
7.0, 640.3064014636911, -375.82254654727876, -182.8044398841448, 36.59866096638143, -0.04800000227987766, 0.0, 0.0, 0.0, 0.0, 0.0, 0.0, 0.0, 1.709014493898097E9, 0.0, 2024-02-26 22:14:53.898
8.0, 508.03174988087267, -507.19027239084244, -327.7367828669958, -181.06725635472685, -0.04800000227987766, 0.0, 0.0, 0.0, 0.0, 0.0, 0.0, 0.0, 1.709014493901073E9, 0.0, 2024-02-26 22:14:53.901
8.0, 646.580083639361, -340.3290260178037, -250.79769102856517, 44.716113820206374, -0.04800000227987766, 0.0, 0.0, 0.0, 0.0, 0.0, 0.0, 0.0, 1.709014493901073E9, 0.0, 2024-02-26 22:14:53.901
9.0, 604.3042545402423, -500.9782985644415, -334.48730228701606, 236.43460524873808, -0.04800000227987766, 0.0, 0.0, 0.0, 0.0, 0.0, 0.0, 0.0, 1.709014493904732E9, 0.0, 2024-02-26 22:14:53.904
9.0, 618.7234388194047, -312.6500264457427, -199.95562108093873, 54.550180753692985, -0.04800000227987766, 0.0, 0.0, 0.0, 0.0, 0.0, 0.0, 0.0, 1.709014493904732E9, 0.0, 2024-02-26 22:14:53.904
10.0, 376.0207612449303, -132.90482472535223, -159.49551341030747, 204.7127738245763, -0.04800000227987766, 0.0, 1.008000047877431, 0.0, 0.0, 0.0, 0.0, 0.0, 1.709014493907761E9, 0.0, 2024-02-26 22:14:53.907
10.0, 256.1607075650245, -24.735698306933045, -61.25956127420068, 356.9379217210226, -0.04800000227987766, 0.0, 1.008000047877431, 0.0, 0.0, 0.0, 0.0, 0.0, 1.709014493907761E9, 0.0, 2024-02-26 22:14:53.907
11.0, 424.6226311190985, -189.18844910850748, -126.63862234959379, 159.259899713099, -0.04800000227987766, -0.04800000227987766, 1.008000047877431, 0.0, 0.0, 0.0, 0.0, 0.0, 1.709014493911646E9, 0.0, 2024-02-26 22:14:53.911
11.0, 485.70641709538177, -19.70179296657443, -9.843416683375835, -7.965986905619502, -0.04800000227987766, -0.04800000227987766, 1.008000047877431, 0.0, 0.0, 0.0, 0.0, 0.0, 1.709014493911646E9, 0.0, 2024-02-26 22:14:53.911
12.0, 616.0269709513523, -218.80097695766017, -209.71862991526723, 107.48659467650577, -0.06400000303983688, -0.04800000227987766, 1.008000047877431, 0.0, 0.0, 0.0, 0.0, 0.0, 1.709014493914572E9, 0.0, 2024-02-26 22:14:53.914
12.0, 621.6312110349536, -378.5227543152869, -179.1262482777238, 38.15071944799274, -0.06400000303983688, -0.04800000227987766, 1.008000047877431, 0.0, 0.0, 0.0, 0.0, 0.0, 1.709014493914572E9, 0.0, 2024-02-26 22:14:53.914
13.0, 506.0701723541133, -520.1303262375295, -329.784378092736, -185.39432060346007, -0.06400000303983688, -0.04800000227987766, 1.008000047877431, 0.0, 0.0, 0.0, 0.0, 0.0, 1.709014493926282E9, 0.0, 2024-02-26 22:14:53.926
13.0, 656.0850393767469, -317.3548205900006, -233.77927628019825, 57.72348586609587, -0.06400000303983688, -0.04800000227987766, 1.008000047877431, 0.0, 0.0, 0.0, 0.0, 0.0, 1.709014493926282E9, 0.0, 2024-02-26 22:14:53.926
14.0, 602.028525417205, -511.07602844480425, -333.40460124984384, 241.15435899281874, -0.06400000303983688, -0.04800000227987766, 1.008000047877431, 0.0, 0.0, 0.0, 0.0, 0.0, 1.709014493940871E9, 0.0, 2024-02-26 22:14:53.940
14.0, 614.5291410190985, -322.78889522561803, -206.41255835443735, 46.079307354055345, -0.06400000303983688, -0.04800000227987766, 1.008000047877431, 0.0, 0.0, 0.0, 0.0, 0.0, 1.709014493940871E9, 0.0, 2024-02-26 22:14:53.940
15.0, 387.3807073603384, -121.73748345766217, -147.39506710367277, 211.86720243981108, -0.06400000303983688, -0.04800000227987766, 1.008000047877431, 0.0, 0.0, 0.0, 0.0, 0.0, 1.709014493943858E9, 0.0, 2024-02-26 22:14:53.943
15.0, 247.9123582127504, -27.83981527015567, -61.986971815582365, 353.3999763629399, -0.06400000303983688, -0.04800000227987766, 1.008000047877431, 0.0, 0.0, 0.0, 0.0, 0.0, 1.709014493943858E9, 0.0, 2024-02-26 22:14:53.943
16.0, 419.66165382787585, -203.0821774438955, -131.37146574351937, 155.31804515980184, -0.06400000303983688, -0.04800000227987766, 1.008000047877431, 0.0, 0.0, 0.0, 0.0, 0.0, 1.70901449395519E9, 0.0, 2024-02-26 22:14:53.955
16.0, 491.8641623724252, -12.947533646598458, 8.184771053027362, 3.3098114607855678, -0.06400000303983688, -0.04800000227987766, 1.008000047877431, 0.0, 0.0, 0.0, 0.0, 0.0, 1.70901449395519E9, 0.0, 2024-02-26 22:14:53.955
17.0, 614.1813303232193, -220.0912424423732, -212.09159643715248, 103.069772828836, -0.06400000303983688, -0.04800000227987766, 1.008000047877431, 0.0, 0.0, 0.0, 0.0, 0.0, 1.709014494003441E9, 0.0, 2024-02-26 22:14:54.003
17.0, 605.441184126772, -402.5927504301071, -185.0745591572486, 34.56041549053043, -0.06400000303983688, -0.04800000227987766, 1.008000047877431, 0.0, 0.0, 0.0, 0.0, 0.0, 1.709014494003441E9, 0.0, 2024-02-26 22:14:54.003
18.0, 512.9179291729815, -529.869025722146, -314.77802952053025, -174.42893393337727, -0.06400000303983688, -0.04800000227987766, 1.008000047877431, 0.0, 0.0, 0.0, 0.0, 0.0, 1.709014494006578E9, 0.0, 2024-02-26 22:14:54.006
18.0, 648.8969516619109, -320.66463205078617, -245.14670219551772, 51.31703724199906, -0.06400000303983688, -0.04800000227987766, 1.008000047877431, 0.0, 0.0, 0.0, 0.0, 0.0, 1.709014494006578E9, 0.0, 2024-02-26 22:14:54.006
19.0, 591.2688332446851, -525.9159514689818, -342.12417799653485, 235.44727166043594, -0.06400000303983688, -0.04800000227987766, 1.008000047877431, 0.0, 0.0, 0.0, 0.0, 0.0, 1.709014494010505E9, 0.0, 2024-02-26 22:14:54.010
19.0, 623.9462091075256, -323.3237009192817, -192.41972267022356, 54.23228925745934, -0.06400000303983688, -0.04800000227987766, 1.008000047877431, 0.0, 0.0, 0.0, 0.0, 0.0, 1.709014494010505E9, 0.0, 2024-02-26 22:14:54.010
20.0, 866.7666935306042, -131.6594380401075, -155.86033065337688, 210.50961875589564, -0.06400000303983688, -0.04800000227987766, 1.008000047877431, 0.0, 0.0, 0.0, 0.0, 0.0, 1.709014494013515E9, 0.0, 2024-02-26 22:14:54.013
20.0, 725.6079096030444, -28.50551746226847, -71.12915725726634, 348.8111191173084, -0.06400000303983688, -0.04800000227987766, 1.008000047877431, 0.0, 0.0, 0.0, 0.0, 0.0, 1.709014494013515E9, 0.0, 2024-02-26 22:14:54.013
21.0, 914.8823764105327, -203.28413204150274, -123.74019988393411, 158.88590971753, -0.06400000303983688, -0.03200000151991844, 1.008000047877431, 0.0, 0.0, 0.0, 0.0, 0.0, 1.709014494017252E9, 0.0, 2024-02-26 22:14:54.017
21.0, 986.3668241635896, -23.090142326429486, -5.662208532914519, -6.918814918026328, -0.06400000303983688, -0.03200000151991844, 1.008000047877431, 0.0, 0.0, 0.0, 0.0, 0.0, 1.709014494017252E9, 0.0, 2024-02-26 22:14:54.017
22.0, 1097.2810371494852, -221.3852478270419, -218.57471301034093, 99.0306808766909, -0.04800000227987766, -0.03200000151991844, 1.008000047877431, 0.0, 0.0, 0.0, 0.0, 0.0, 1.709014494031527E9, 0.0, 2024-02-26 22:14:54.031
22.0, 1110.1107639474794, -379.3717116052285, -182.76143103465438, 39.16423233598471, -0.04800000227987766, -0.03200000151991844, 1.008000047877431, 0.0, 0.0, 0.0, 0.0, 0.0, 1.709014494031527E9, 0.0, 2024-02-26 22:14:54.031
23.0, 1007.8114105095156, -531.3088872050866, -326.09683673642576, -182.7913502342999, -0.04800000227987766, -0.03200000151991844, 1.008000047877431, 0.0, 0.0, 0.0, 0.0, 0.0, 1.709014494034513E9, 0.0, 2024-02-26 22:14:54.034
23.0, 1136.8342190808617, -326.00146928755566, -254.92841052962467, 39.495213482063264, -0.04800000227987766, -0.03200000151991844, 1.008000047877431, 0.0, 0.0, 0.0, 0.0, 0.0, 1.709014494034513E9, 0.0, 2024-02-26 22:14:54.034
24.0, 1079.4192749611102, -502.504177746363, -331.69172707013786, 243.45813736552373, -0.04800000227987766, -0.03200000151991844, 1.008000047877431, 0.0, 0.0, 0.0, 0.0, 0.0, 1.709014494037643E9, 0.0, 2024-02-26 22:14:54.037
24.0, 1114.8379974914715, -328.2865481604822, -199.52366263605654, 47.43315113801509, -0.04800000227987766, -0.03200000151991844, 1.008000047877431, 0.0, 0.0, 0.0, 0.0, 0.0, 1.709014494037643E9, 0.0, 2024-02-26 22:14:54.037
25.0, 1357.7781587131321, -124.59476702380925, -165.13341259351, 199.4133355873637, -0.04800000227987766, -0.03200000151991844, 1.008000047877431, 0.0, 0.0, 0.0, 0.0, 0.0, 1.709014494045224E9, 0.0, 2024-02-26 22:14:54.045
25.0, 1225.5614755796269, -12.4875259520486, -61.66534041939303, 358.09729070728645, -0.04800000227987766, -0.03200000151991844, 1.008000047877431, 0.0, 0.0, 0.0, 0.0, 0.0, 1.709014494045224E9, 0.0, 2024-02-26 22:14:54.045
26.0, 1409.7160193477757, -208.16470148367807, -128.01303558330983, 150.30283931922168, -0.04800000227987766, -0.03200000151991844, 1.008000047877431, 0.0, 0.0, 0.0, 0.0, 0.0, 1.709014494061398E9, 0.0, 2024-02-26 22:14:54.061
26.0, 1470.20890113106, -22.267364336177707, -14.6547979763709, -13.65437473822385, -0.04800000227987766, -0.03200000151991844, 1.008000047877431, 0.0, 0.0, 0.0, 0.0, 0.0, 1.709014494061398E9, 0.0, 2024-02-26 22:14:54.061
27.0, 1601.4232910764404, -204.16674843104556, -210.34880305780098, 109.06483245780692, -0.04800000227987766, -0.03200000151991844, 1.008000047877431, 0.0, 0.0, 0.0, 0.0, 0.0, 1.709014494064416E9, 0.0, 2024-02-26 22:14:54.064
27.0, 1587.9035527366214, -381.4735353803262, -185.05211975751445, 36.1274335719645, -0.04800000227987766, -0.03200000151991844, 1.008000047877431, 0.0, 0.0, 0.0, 0.0, 0.0, 1.709014494064416E9, 0.0, 2024-02-26 22:14:54.064
28.0, 1497.560659456998, -521.5851473202929, -333.04744080407545, -194.7590300925076, -0.04800000227987766, -0.03200000151991844, 1.008000047877431, 0.0, 0.0, 0.0, 0.0, 0.0, 1.709014494107214E9, 0.0, 2024-02-26 22:14:54.107
28.0, 1641.4121713526547, -297.69042662298307, -243.99481300916523, 50.1165293562226, -0.04800000227987766, -0.03200000151991844, 1.008000047877431, 0.0, 0.0, 0.0, 0.0, 0.0, 1.709014494107214E9, 0.0, 2024-02-26 22:14:54.107
29.0, 1566.9171041352674, -493.3526425547898, -345.7369213537313, 236.67021894594654, -0.04800000227987766, -0.03200000151991844, 1.008000047877431, 0.0, 0.0, 0.0, 0.0, 0.0, 1.709014494137986E9, 0.0, 2024-02-26 22:14:54.137
29.0, 1594.7625292553566, -337.4418232520111, -208.9650400741957, 41.1688187122345, -0.04800000227987766, -0.03200000151991844, 1.008000047877431, 0.0, 0.0, 0.0, 0.0, 0.0, 1.709014494137986E9, 0.0, 2024-02-26 22:14:54.137
30.0, 1373.541837026365, -97.77594444155693, -154.2933125719428, 202.7044475483708, -0.04800000227987766, -0.03200000151991844, 1.008000047877431, 0.0, 0.0, 0.0, 0.0, 0.0, 1.709014494141023E9, 0.0, 2024-02-26 22:14:54.141
30.0, 1215.4824451990426, -0.4151288950815797, -67.16860320419073, 351.9937739796005, -0.04800000227987766, -0.03200000151991844, 1.008000047877431, 0.0, 0.0, 0.0, 0.0, 0.0, 1.709014494141023E9, 0.0, 2024-02-26 22:14:54.141
31.0, 1401.645315243397, -203.1532355430536, -136.91212752787396, 149.39778352994472, -0.04800000227987766, -0.04800000227987766, 1.008000047877431, 0.0, 0.0, 0.0, 0.0, 0.0, 1.709014494144096E9, 0.0, 2024-02-26 22:14:54.144
31.0, 1476.106723361183, -4.330804148688912, -10.08651018049568, -9.66764138545841, -0.04800000227987766, -0.04800000227987766, 1.008000047877431, 0.0, 0.0, 0.0, 0.0, 0.0, 1.709014494144096E9, 0.0, 2024-02-26 22:14:54.144
32.0, 1598.1433988153003, -196.1484029260464, -217.89405121840537, 107.8119659726508, -0.06400000303983688, -0.04800000227987766, 1.008000047877431, 0.0, 0.0, 0.0, 0.0, 0.0, 1.709014494147174E9, 0.0, 2024-02-26 22:14:54.147
32.0, 1578.3892472493462, -391.9302956564352, -190.81717553921044, 35.30839548166841, -0.06400000303983688, -0.04800000227987766, 1.008000047877431, 0.0, 0.0, 0.0, 0.0, 0.0, 1.709014494147174E9, 0.0, 2024-02-26 22:14:54.147
33.0, 1497.1380507620052, -519.1916113486513, -327.73491291701794, -188.61437446530908, -0.06400000303983688, -0.04800000227987766, 1.008000047877431, 0.0, 0.0, 0.0, 0.0, 0.0, 1.709014494152399E9, 0.0, 2024-02-26 22:14:54.152
33.0, 1630.588900880888, -305.18892603414133, -251.89535166556016, 39.15862248605117, -0.06400000303983688, -0.04800000227987766, 1.008000047877431, 0.0, 0.0, 0.0, 0.0, 0.0, 1.709014494152399E9, 0.0, 2024-02-26 22:14:54.152
34.0, 1555.7273234678432, -507.63532048556954, -340.10276207048446, 236.4682643483393, -0.06400000303983688, -0.04800000227987766, 1.008000047877431, 0.0, 0.0, 0.0, 0.0, 0.0, 1.709014494155233E9, 0.0, 2024-02-26 22:14:54.155
34.0, 1601.090439980384, -337.7634546482004, -195.10310088843107, 55.758168439380825, -0.06400000303983688, -0.04800000227987766, 1.008000047877431, 0.0, 0.0, 0.0, 0.0, 0.0, 1.709014494155233E9, 0.0, 2024-02-26 22:14:54.155
35.0, 1372.7676777355373, -118.21823759935796, -156.14643299998716, 201.88540945807472, -0.06400000303983688, -0.04800000227987766, 1.008000047877431, 0.0, 0.0, 0.0, 0.0, 0.0, 1.709014494158372E9, 0.0, 2024-02-26 22:14:54.158
35.0, 1215.706839196384, -13.467379740439355, -68.62903413688764, 357.3642703159712, -0.06400000303983688, -0.04800000227987766, 1.008000047877431, 0.0, 0.0, 0.0, 0.0, 0.0, 1.709014494158372E9, 0.0, 2024-02-26 22:14:54.158
36.0, 1407.9320870689116, -220.48019203776494, -124.46013062540442, 163.42988816369325, -0.06400000303983688, -0.04800000227987766, 1.008000047877431, 0.0, 0.0, 0.0, 0.0, 0.0, 1.709014494161301E9, 0.0, 2024-02-26 22:14:54.161
36.0, 1480.7180200065486, -26.235398189164698, -0.4917968441732228, -5.677168132737279, -0.06400000303983688, -0.04800000227987766, 1.008000047877431, 0.0, 0.0, 0.0, 0.0, 0.0, 1.709014494161301E9, 0.0, 2024-02-26 22:14:54.161
37.0, 1589.7248840150423, -210.53953795554116, -211.28003814676777, 109.57719875173643, -0.06400000303983688, -0.04800000227987766, 1.008000047877431, 0.0, 0.0, 0.0, 0.0, 0.0, 1.70901449416552E9, 0.0, 2024-02-26 22:14:54.165
37.0, 1593.5077928202227, -393.60577083658427, -166.3900189786218, 49.4302577143535, -0.06400000303983688, -0.04800000227987766, 1.008000047877431, 0.0, 0.0, 0.0, 0.0, 0.0, 1.70901449416552E9, 0.0, 2024-02-26 22:14:54.165
38.0, 1499.9934643781744, -543.1232311651111, -328.0920733627863, -189.30251605715603, -0.06400000303983688, -0.04800000227987766, 1.008000047877431, 0.0, 0.0, 0.0, 0.0, 0.0, 1.709014494180741E9, 0.0, 2024-02-26 22:14:54.180
38.0, 1626.6414364776574, -314.5723350229673, -248.16106155980378, 49.940754058305174, -0.06400000303983688, -0.04800000227987766, 1.008000047877431, 0.0, 0.0, 0.0, 0.0, 0.0, 1.709014494180741E9, 0.0, 2024-02-26 22:14:54.180
39.0, 1565.1387817063369, -504.2357514258474, -322.3962057302706, 257.4752823994495, -0.06400000303983688, -0.04800000227987766, 1.008000047877431, 0.0, 0.0, 0.0, 0.0, 0.0, 1.709014494228136E9, 0.0, 2024-02-26 22:14:54.228
39.0, 1596.6605284828693, -336.0356208686717, -195.8118119300343, 45.90353205613792, -0.06400000303983688, -0.04800000227987766, 1.008000047877431, 0.0, 0.0, 0.0, 0.0, 0.0, 1.709014494228136E9, 0.0, 2024-02-26 22:14:54.228
40.0, 1358.7636223514564, -126.6554518993944, -162.4500343753025, 200.68864147225395, -0.06400000303983688, -0.04800000227987766, 1.0240000486373901, 0.0, 0.0, 0.0, 0.0, 0.0, 1.709014494231976E9, 0.0, 2024-02-26 22:14:54.231
40.0, 1214.2538880635984, -4.9703270411118865, -55.8030472388491, 367.4545203964226, -0.06400000303983688, -0.04800000227987766, 1.0240000486373901, 0.0, 0.0, 0.0, 0.0, 0.0, 1.709014494231976E9, 0.0, 2024-02-26 22:14:54.231
41.0, 1406.939143630676, -205.44205431593582, -124.81355117121711, 149.1846092324704, -0.06400000303983688, -0.04800000227987766, 1.0240000486373901, 0.0, 0.0, 0.0, 0.0, 0.0, 1.709014494235195E9, 0.0, 2024-02-26 22:14:54.235
41.0, 1474.04416853562, -22.383301234804094, -8.680307797156274, -11.111242768354714, -0.06400000303983688, -0.04800000227987766, 1.0240000486373901, 0.0, 0.0, 0.0, 0.0, 0.0, 1.709014494235195E9, 0.0, 2024-02-26 22:14:54.235
42.0, 1597.4309478737414, -196.7056480194442, -203.06534789409488, 113.18994210893288, -0.04800000227987766, -0.04800000227987766, 1.0240000486373901, 0.0, 0.0, 0.0, 0.0, 0.0, 1.709014494238186E9, 0.0, 2024-02-26 22:14:54.238
42.0, 1586.8919097986072, -386.76175391767174, -176.98328560311347, 51.95469018444419, -0.04800000227987766, -0.04800000227987766, 1.0240000486373901, 0.0, 0.0, 0.0, 0.0, 0.0, 1.709014494238186E9, 0.0, 2024-02-26 22:14:54.238
43.0, 1498.4825447960757, -542.087278877385, -334.186240340583, -189.02950336039066, -0.04800000227987766, -0.04800000227987766, 1.0240000486373901, 0.0, 0.0, 0.0, 0.0, 0.0, 1.709014494242005E9, 0.0, 2024-02-26 22:14:54.242
43.0, 1636.6419289591722, -302.24936466896906, -235.84744095569476, 53.81529041239992, -0.04800000227987766, -0.04800000227987766, 1.0240000486373901, 0.0, 0.0, 0.0, 0.0, 0.0, 1.709014494242005E9, 0.0, 2024-02-26 22:14:54.242
44.0, 1554.0200591380708, -509.51275026332587, -324.2306266585365, 249.72620969126, -0.04800000227987766, -0.04800000227987766, 1.0240000486373901, 0.0, 0.0, 0.0, 0.0, 0.0, 1.709014494244967E9, 0.0, 2024-02-26 22:14:54.244
44.0, 1605.9354803729802, -345.5536662559025, -198.9851170424372, 42.15989220049232, -0.04800000227987766, -0.04800000227987766, 1.0240000486373901, 0.0, 0.0, 0.0, 0.0, 0.0, 1.709014494244967E9, 0.0, 2024-02-26 22:14:54.244
45.0, 1375.5894322521053, -119.9460713788867, -153.7566369283013, 207.32696389360353, -0.04800000227987766, -0.04800000227987766, 1.0240000486373901, 0.0, 0.0, 0.0, 0.0, 0.0, 1.709014494248082E9, 0.0, 2024-02-26 22:14:54.248
45.0, 1211.3330261982046, -10.557737574912608, -55.77873788913712, 369.51146537205204, -0.04800000227987766, -0.04800000227987766, 1.0240000486373901, 0.0, 0.0, 0.0, 0.0, 0.0, 1.709014494248082E9, 0.0, 2024-02-26 22:14:54.248
46.0, 1407.0438608294353, -221.14963412983343, -129.25842226855457, 156.09968425054103, -0.04800000227987766, -0.04800000227987766, 1.0240000486373901, 0.0, 0.0, 0.0, 0.0, 0.0, 1.709014494255168E9, 0.0, 2024-02-26 22:14:54.255
46.0, 1494.0301938988268, -29.290896452963352, 0.7012312416918576, -3.896975753828883, -0.04800000227987766, -0.04800000227987766, 1.0240000486373901, 0.0, 0.0, 0.0, 0.0, 0.0, 1.709014494255168E9, 0.0, 2024-02-26 22:14:54.255
47.0, 1594.3978890096769, -213.40804122155532, -205.62156951380894, 117.86107715358958, -0.04800000227987766, -0.04800000227987766, 1.0240000486373901, 0.0, 0.0, 0.0, 0.0, 0.0, 1.70901449427203E9, 0.0, 2024-02-26 22:14:54.272
47.0, 1582.3404515525326, -397.4578677909449, -181.8058865959756, 40.432058420963585, -0.04800000227987766, -0.04800000227987766, 1.0240000486373901, 0.0, 0.0, 0.0, 0.0, 0.0, 1.70901449427203E9, 0.0, 2024-02-26 22:14:54.272
48.0, 1506.4672312014736, -549.2080483930185, -321.82400103705004, -185.6448939004913, -0.04800000227987766, -0.04800000227987766, 1.0240000486373901, 0.0, 0.0, 0.0, 0.0, 0.0, 1.709014494275011E9, 0.0, 2024-02-26 22:14:54.275
48.0, 1633.6761882943101, -311.9843242536299, -240.49426665063947, 58.57992295594886, -0.04800000227987766, -0.04800000227987766, 1.0240000486373901, 0.0, 0.0, 0.0, 0.0, 0.0, 1.709014494275011E9, 0.0, 2024-02-26 22:14:54.275
49.0, 1544.0345262563787, -515.807001888752, -332.5836932095699, 249.48311619414017, -0.04800000227987766, -0.04800000227987766, 1.0240000486373901, 0.0, 0.0, 0.0, 0.0, 0.0, 1.709014494285269E9, 0.0, 2024-02-26 22:14:54.285
49.0, 1610.8384892148897, -330.86707912990823, -185.26903395494446, 50.499869101680815, -0.04800000227987766, -0.04800000227987766, 1.0240000486373901, 0.0, 0.0, 0.0, 0.0, 0.0, 1.709014494285269E9, 0.0, 2024-02-26 22:14:54.285
50.0, 1375.6567504513077, -126.18048460502177, -154.45786816999316, 206.05165800871328, -0.04800000227987766, -0.04800000227987766, 1.0240000486373901, 0.0, 0.0, 0.0, 0.0, 0.0, 1.709014494346313E9, 0.0, 2024-02-26 22:14:54.346
50.0, 1201.306354417, -13.744132337160408, -60.70979598071426, 366.3138509099372, -0.04800000227987766, -0.04800000227987766, 1.0240000486373901, 0.0, 0.0, 0.0, 0.0, 0.0, 1.709014494346313E9, 0.0, 2024-02-26 22:14:54.346
51.0, 1403.019728477113, -210.8611693517305, -112.47562121739611, 160.88301629386842, -0.04800000227987766, -0.04800000227987766, 1.0240000486373901, 0.0, 0.0, 0.0, 0.0, 0.0, 1.709014494363092E9, 0.0, 2024-02-26 22:14:54.363
51.0, 1481.7184432446957, -27.73509807139635, 0.3291111961007118, -14.45471332874149, -0.04800000227987766, -0.04800000227987766, 1.0240000486373901, 0.0, 0.0, 0.0, 0.0, 0.0, 1.709014494363092E9, 0.0, 2024-02-26 22:14:54.363
52.0, 1583.1033911434934, -212.71989962970838, -211.71573649160564, 110.86372433649376, -0.06400000303983688, -0.04800000227987766, 1.0240000486373901, 0.0, 0.0, 0.0, 0.0, 0.0, 1.709014494366187E9, 0.0, 2024-02-26 22:14:54.366
52.0, 1595.0766808516346, -377.83087282348424, -173.10126944910735, 50.552227701060474, -0.06400000303983688, -0.04800000227987766, 1.0240000486373901, 0.0, 0.0, 0.0, 0.0, 0.0, 1.709014494366187E9, 0.0, 2024-02-26 22:14:54.366
53.0, 1508.1296167317778, -546.9566286196932, -330.53983788378537, -192.50761031918228, -0.06400000303983688, -0.04800000227987766, 1.0240000486373901, 0.0, 0.0, 0.0, 0.0, 0.0, 1.709014494370069E9, 0.0, 2024-02-26 22:14:54.370
53.0, 1627.7503168145195, -304.37362784380093, -244.68108465103433, 48.313897577580065, -0.06400000303983688, -0.04800000227987766, 1.0240000486373901, 0.0, 0.0, 0.0, 0.0, 0.0, 1.709014494370069E9, 0.0, 2024-02-26 22:14:54.370
54.0, 1551.3927794191986, -485.65218854602426, -325.0421849489212, 259.42751017631963, -0.06400000303983688, -0.04800000227987766, 1.0240000486373901, 0.0, 0.0, 0.0, 0.0, 0.0, 1.709014494374044E9, 0.0, 2024-02-26 22:14:54.374
54.0, 1606.2851610188372, -341.1854631076567, -200.1744052283466, 52.72510957531631, -0.06400000303983688, -0.04800000227987766, 1.0240000486373901, 0.0, 0.0, 0.0, 0.0, 0.0, 1.709014494374044E9, 0.0, 2024-02-26 22:14:54.374
55.0, 1373.6914330245927, -118.27433609869331, -160.84374734433368, 198.1155903027393, -0.06400000303983688, -0.04800000227987766, 1.0240000486373901, 0.0, 0.0, 0.0, 0.0, 0.0, 1.709014494378431E9, 0.0, 2024-02-26 22:14:54.378
55.0, 1205.3435764191672, 8.927141194231808, -53.35154281789437, 368.65502828219905, -0.06400000303983688, -0.04800000227987766, 1.0240000486373901, 0.0, 0.0, 0.0, 0.0, 0.0, 1.709014494378431E9, 0.0, 2024-02-26 22:14:54.378
56.0, 1406.0359577913769, -214.81050370493904, -126.539515000768, 152.071811998263, -0.06400000303983688, -0.04800000227987766, 1.0240000486373901, 0.0, 0.0, 0.0, 0.0, 0.0, 1.709014494381857E9, 0.0, 2024-02-26 22:14:54.381
56.0, 1482.726346282754, -19.047310474328697, -17.829973038751632, -21.470765645615757, -0.06400000303983688, -0.04800000227987766, 1.0240000486373901, 0.0, 0.0, 0.0, 0.0, 0.0, 1.709014494381857E9, 0.0, 2024-02-26 22:14:54.381
57.0, 1596.0677543398924, -187.71866842592135, -205.25131941819564, 115.99112717574462, -0.06400000303983688, -0.04800000227987766, 1.0240000486373901, 0.0, 0.0, 0.0, 0.0, 0.0, 1.709014494384801E9, 0.0, 2024-02-26 22:14:54.384
57.0, 1580.1021214290522, -382.995674662292, -179.59934562211856, 40.75742971710861, -0.06400000303983688, -0.04800000227987766, 1.0240000486373901, 0.0, 0.0, 0.0, 0.0, 0.0, 1.709014494384801E9, 0.0, 2024-02-26 22:14:54.384
58.0, 1512.093910684809, -545.2437544399872, -341.02090750960633, -203.30470149125904, -0.06400000303983688, -0.04800000227987766, 1.0240000486373901, 0.0, 0.0, 0.0, 0.0, 0.0, 1.709014494387718E9, 0.0, 2024-02-26 22:14:54.387
58.0, 1638.3005745895207, -778.3591984780505, -246.12281608395278, -439.04555529821664, -0.06400000303983688, -0.04800000227987766, 1.0240000486373901, 0.0, 0.0, 0.0, 0.0, 0.0, 1.709014494387718E9, 0.0, 2024-02-26 22:14:54.387
59.0, 1548.868346949108, -981.6695098192431, -327.8751591653563, -237.895036181435, -0.06400000303983688, -0.04800000227987766, 1.0240000486373901, 0.0, 0.0, 0.0, 0.0, 0.0, 1.709014494391307E9, 0.0, 2024-02-26 22:14:54.391
59.0, 1600.8997050826438, -834.5250160126016, -209.73171956511214, -454.33239636709914, -0.06400000303983688, -0.04800000227987766, 1.0240000486373901, 0.0, 0.0, 0.0, 0.0, 0.0, 1.709014494391307E9, 0.0, 2024-02-26 22:14:54.391
60.0, 1383.1832991121337, -600.9252549302764, -159.93682160507888, -290.45933005865663, -0.06400000303983688, -0.04800000227987766, 1.008000047877431, 0.0, 0.0, 0.0, 0.0, 0.0, 1.709014494394394E9, 0.0, 2024-02-26 22:14:54.394
60.0, 1207.0489707989618, -481.33821394713596, -54.64367825258523, -121.1316196648404, -0.06400000303983688, -0.04800000227987766, 1.008000047877431, 0.0, 0.0, 0.0, 0.0, 0.0, 1.709014494394394E9, 0.0, 2024-02-26 22:14:54.394
61.0, 1406.757758482825, -707.1814225213602, -137.7536050179042, -339.3192530297674, -0.06400000303983688, -0.04800000227987766, 1.008000047877431, 0.0, 0.0, 0.0, 0.0, 0.0, 1.709014494405162E9, 0.0, 2024-02-26 22:14:54.405
61.0, 1500.0495628775097, -505.8794374563731, -6.197014226578176, -504.3385986746289, -0.06400000303983688, -0.04800000227987766, 1.008000047877431, 0.0, 0.0, 0.0, 0.0, 0.0, 1.709014494405162E9, 0.0, 2024-02-26 22:14:54.405
62.0, 1593.1618520743214, -677.8606068687513, -211.86159258987755, -382.0233006738126, -0.06400000303983688, -0.04800000227987766, 1.008000047877431, 0.0, 0.0, 0.0, 0.0, 0.0, 1.709014494452836E9, 0.0, 2024-02-26 22:14:54.452
62.0, 1577.6824061577208, -876.6157200639136, -183.9731586202979, -451.37039560219273, -0.06400000303983688, -0.04800000227987766, 1.008000047877431, 0.0, 0.0, 0.0, 0.0, 0.0, 1.709014494452836E9, 0.0, 2024-02-26 22:14:54.452
63.0, 1523.9942723438144, -1031.6046540276147, -326.0070791374892, -682.5597911630757, -0.06400000303983688, -0.04800000227987766, 1.008000047877431, 0.0, 0.0, 0.0, 0.0, 0.0, 1.709014494456005E9, 0.0, 2024-02-26 22:14:54.456
63.0, 1641.7599820485339, -1273.9539110562764, -249.85336628975347, -441.2371366722509, -0.06400000303983688, -0.04800000227987766, 1.008000047877431, 0.0, 0.0, 0.0, 0.0, 0.0, 1.709014494456005E9, 0.0, 2024-02-26 22:14:54.456
64.0, 1549.7547032386065, -1479.362306272611, -337.1632007053122, -242.4128353279084, -0.06400000303983688, -0.04800000227987766, 1.008000047877431, 0.0, 0.0, 0.0, 0.0, 0.0, 1.709014494458963E9, 0.0, 2024-02-26 22:14:54.458
64.0, 1623.7542337118648, -1320.9644534992985, -199.97245063073933, -446.4150281609036, -0.06400000303983688, -0.04800000227987766, 1.008000047877431, 0.0, 0.0, 0.0, 0.0, 0.0, 1.709014494458963E9, 0.0, 2024-02-26 22:14:54.458
65.0, 1383.168339512311, -1101.890463844873, -162.42198512563482, -286.2781219081953, -0.06400000303983688, -0.04800000227987766, 1.008000047877431, 0.0, 0.0, 0.0, 0.0, 0.0, 1.709014494462053E9, 0.0, 2024-02-26 22:14:54.462
65.0, 1199.7898249849677, -982.9429457541555, -69.22741812979802, -121.8010617569089, -0.06400000303983688, -0.04800000227987766, 1.008000047877431, 0.0, 0.0, 0.0, 0.0, 0.0, 1.709014494462053E9, 0.0, 2024-02-26 22:14:54.462
66.0, 1410.845469134394, -1194.4623374980874, -124.31427452713251, -333.94127689348534, -0.06400000303983688, -0.04800000227987766, 1.008000047877431, 0.0, 0.0, 0.0, 0.0, 0.0, 1.709014494466033E9, 0.0, 2024-02-26 22:14:54.466
66.0, 1491.0999822835438, -1006.0966663798317, -13.274774892721325, -504.2675405754708, -0.06400000303983688, -0.04800000227987766, 1.008000047877431, 0.0, 0.0, 0.0, 0.0, 0.0, 1.709014494466033E9, 0.0, 2024-02-26 22:14:54.466
67.0, 1587.5594819406979, -1170.2427453850396, -218.0155979669653, -375.7253091484308, -0.06400000303983688, -0.04800000227987766, 1.008000047877431, 0.0, 0.0, 0.0, 0.0, 0.0, 1.709014494469026E9, 0.0, 2024-02-26 22:14:54.469
67.0, 1587.99144038558, -1360.9720332752913, -179.5432471227832, -442.94814090197906, -0.06400000303983688, -0.04800000227987766, 1.008000047877431, 0.0, 0.0, 0.0, 0.0, 0.0, 1.709014494469026E9, 0.0, 2024-02-26 22:14:54.469
68.0, 1522.9115713066421, -1542.0430295299739, -334.41250428790227, -204.29203507956117, -0.06400000303983688, -0.04800000227987766, 1.008000047877431, 0.0, 0.0, 0.0, 0.0, 0.0, 1.709014494480838E9, 0.0, 2024-02-26 22:14:54.480
68.0, 1644.2114864694886, -1755.0714709060267, -258.1503343414515, -446.26356221269816, -0.06400000303983688, -0.04800000227987766, 1.008000047877431, 0.0, 0.0, 0.0, 0.0, 0.0, 1.709014494480838E9, 0.0, 2024-02-26 22:14:54.480
69.0, 1554.6521022305824, -1953.583490604069, -326.3604996833019, -237.53974568564445, -0.06400000303983688, -0.04800000227987766, 1.008000047877431, 0.0, 0.0, 0.0, 0.0, 0.0, 1.709014494483822E9, 0.0, 2024-02-26 22:14:54.483
69.0, 1612.450386095792, -1830.3182580145076, -203.44120783964172, -449.3882486256771, -0.06400000303983688, -0.04800000227987766, 1.008000047877431, 0.0, 0.0, 0.0, 0.0, 0.0, 1.709014494483822E9, 0.0, 2024-02-26 22:14:54.483
70.0, 1387.9124026061036, -2067.0202661100775, -169.66056148987263, -300.6206382382661, -0.06400000303983688, -0.04800000227987766, 1.008000047877431, 0.0, 0.0, 0.0, 0.0, 0.0, 1.709014494495043E9, 0.0, 2024-02-26 22:14:54.495
70.0, 1207.1331185479648, -1948.6599123124033, -54.45294335484505, -113.48352425545454, -0.06400000303983688, -0.04800000227987766, 1.008000047877431, 0.0, 0.0, 0.0, 0.0, 0.0, 1.709014494495043E9, 0.0, 2024-02-26 22:14:54.495
71.0, 1409.471055900678, -2176.466568363365, -125.57649076217785, -344.1474638725631, -0.06400000303983688, -0.03200000151991844, 1.008000047877431, 0.0, 0.0, 0.0, 0.0, 0.0, 1.70901449451108E9, 0.0, 2024-02-26 22:14:54.511
71.0, 1490.8961577359587, -1991.6912012025714, -17.981438986957073, -517.0205994243734, -0.06400000303983688, -0.03200000151991844, 1.008000047877431, 0.0, 0.0, 0.0, 0.0, 0.0, 1.70901449451108E9, 0.0, 2024-02-26 22:14:54.511
72.0, 1599.3382968511432, -2135.1967723523267, -204.77074227388948, -376.8846781346947, -0.06400000303983688, -0.03200000151991844, 1.008000047877431, 0.0, 0.0, 0.0, 0.0, 0.0, 1.70901449451396E9, 0.0, 2024-02-26 22:14:54.513
72.0, 1580.9192895693704, -2349.9623972577974, -179.39178117457777, -443.80083809187636, -0.06400000303983688, -0.03200000151991844, 1.008000047877431, 0.0, 0.0, 0.0, 0.0, 0.0, 1.70901449451396E9, 0.0, 2024-02-26 22:14:54.513
73.0, 1510.0388356591575, -2526.713809063658, -340.3869944671169, -203.93300468381494, -0.06400000303983688, -0.03200000151991844, 1.008000047877431, 0.0, 0.0, 0.0, 0.0, 0.0, 1.70901449456001E9, 0.0, 2024-02-26 22:14:54.560
73.0, 1652.2410516743548, -2722.57984954305, -247.31397421984002, -432.21649797912687, -0.06400000303983688, -0.03200000151991844, 1.008000047877431, 0.0, 0.0, 0.0, 0.0, 0.0, 1.70901449456001E9, 0.0, 2024-02-26 22:14:54.560
74.0, 1547.9090626104735, -2946.545628339518, -332.039537766017, -236.97128089237958, -0.06400000303983688, -0.03200000151991844, 1.008000047877431, 0.0, 0.0, 0.0, 0.0, 0.0, 1.709014494563058E9, 0.0, 2024-02-26 22:14:54.563
74.0, 1608.579589641653, -2805.8412422565743, -211.74565569125116, -450.4578600130044, -0.06400000303983688, -0.03200000151991844, 1.008000047877431, 0.0, 0.0, 0.0, 0.0, 0.0, 1.709014494563058E9, 0.0, 2024-02-26 22:14:54.563
75.0, 1393.769085936714, -3049.4658051701263, -154.6841321173124, -290.26111536100507, -0.06400000303983688, -0.03200000151991844, 1.008000047877431, 0.0, 0.0, 0.0, 0.0, 0.0, 1.709014494567358E9, 0.0, 2024-02-26 22:14:54.567
75.0, 1205.7979742637835, -2915.9775560516864, -53.931227311026305, -120.29762197472155, -0.06400000303983688, -0.03200000151991844, 1.008000047877431, 0.0, 0.0, 0.0, 0.0, 0.0, 1.709014494567358E9, 0.0, 2024-02-26 22:14:54.567
76.0, 1397.8998054377735, -2701.883243188262, -132.34009983204305, -336.93693675799295, -0.06400000303983688, -0.03200000151991844, 1.008000047877431, 0.0, 0.0, 0.0, 0.0, 0.0, 1.709014494570733E9, 0.0, 2024-02-26 22:14:54.570
76.0, 1504.6515097729862, -2462.711031171959, -8.831773745361716, -506.1861092527397, -0.06400000303983688, -0.03200000151991844, 1.008000047877431, 0.0, 0.0, 0.0, 0.0, 0.0, 1.709014494570733E9, 0.0, 2024-02-26 22:14:54.570
77.0, 1590.7402668530121, -2635.5074987746775, -207.91038828669116, -370.82604020647705, -0.06400000303983688, -0.03200000151991844, 1.008000047877431, 0.0, 0.0, 0.0, 0.0, 0.0, 1.709014494573552E9, 0.0, 2024-02-26 22:14:54.573
77.0, 1571.5321406805888, -2850.0636892826296, -181.35709860129282, -441.27640562178567, -0.06400000303983688, -0.03200000151991844, 1.008000047877431, 0.0, 0.0, 0.0, 0.0, 0.0, 1.709014494573552E9, 0.0, 2024-02-26 22:14:54.573
78.0, 1526.8272465602495, -3013.3402415481396, -344.1549436724745, -205.9151516603306, -0.06400000303983688, -0.03200000151991844, 1.008000047877431, 0.0, 0.0, 0.0, 0.0, 0.0, 1.709014494576746E9, 0.0, 2024-02-26 22:14:54.576
78.0, 1644.3124637682922, -3228.6687213969417, -234.5553055210039, -440.6200531795621, -0.06400000303983688, -0.03200000151991844, 1.008000047877431, 0.0, 0.0, 0.0, 0.0, 0.0, 1.709014494576746E9, 0.0, 2024-02-26 22:14:54.576
79.0, 1532.4483161936514, -3427.9735998855904, -331.5365212219767, -239.4807537626475, -0.06400000303983688, -0.03200000151991844, 1.008000047877431, 0.0, 0.0, 0.0, 0.0, 0.0, 1.709014494585155E9, 0.0, 2024-02-26 22:14:54.585
79.0, 1612.7383583923802, -3312.7304527009837, -195.06757183885202, -446.7403994570486, -0.06400000303983688, -0.03200000151991844, 1.008000047877431, 0.0, 0.0, 0.0, 0.0, 0.0, 1.709014494585155E9, 0.0, 2024-02-26 22:14:54.585
80.0, 1396.3720563058741, -3537.128189942334, -159.31225831247866, -300.1868098434061, -0.06400000303983688, -0.03200000151991844, 1.008000047877431, 0.0, 0.0, 0.0, 0.0, 0.0, 1.709014494600952E9, 0.0, 2024-02-26 22:14:54.600
80.0, 1196.2500096769072, -3412.204311722424, -57.19429002236575, -116.8718736153096, -0.06400000303983688, -0.03200000151991844, 1.008000047877431, 0.0, 0.0, 0.0, 0.0, 0.0, 1.709014494600952E9, 0.0, 2024-02-26 22:14:54.600
81.0, 1408.3902248134837, -3172.1476133666, -117.75262005487457, -326.43155778246, -0.06400000303983688, -0.04800000227987766, 1.008000047877431, 0.0, 0.0, 0.0, 0.0, 0.0, 1.709014494603854E9, 0.0, 2024-02-26 22:14:54.603
81.0, 1501.6558499084786, -2966.698079250753, -13.459899940527976, -517.8620769144036, -0.06400000303983688, -0.04800000227987766, 1.008000047877431, 0.0, 0.0, 0.0, 0.0, 0.0, 1.709014494603854E9, 0.0, 2024-02-26 22:14:54.603
82.0, 1589.7117943651974, -3121.6215649652295, -213.653004668653, -381.23792168311775, -0.06400000303983688, -0.04800000227987766, 1.008000047877431, 0.0, 0.0, 0.0, 0.0, 0.0, 1.709014494615843E9, 0.0, 2024-02-26 22:14:54.615
82.0, 1582.4302091514692, -3327.392730477266, -166.75839912425727, -430.02678655507043, -0.06400000303983688, -0.04800000227987766, 1.008000047877431, 0.0, 0.0, 0.0, 0.0, 0.0, 1.709014494615843E9, 0.0, 2024-02-26 22:14:54.615
83.0, 1516.075034187641, -3507.349236545153, -335.5400841245428, -205.9151516603306, -0.06400000303983688, -0.04800000227987766, 1.008000047877431, 0.0, 0.0, 0.0, 0.0, 0.0, 1.709014494630903E9, 0.0, 2024-02-26 22:14:54.630
83.0, 1640.9278543083929, -3707.639578672126, -251.11371257482097, -445.3697261232883, -0.06400000303983688, -0.04800000227987766, 1.008000047877431, 0.0, 0.0, 0.0, 0.0, 0.0, 1.709014494630903E9, 0.0, 2024-02-26 22:14:54.630
84.0, 1539.3933104113676, -3929.974761087913, -314.05061897914857, -218.12218511570245, -0.06400000303983688, -0.04800000227987766, 1.008000047877431, 0.0, 0.0, 0.0, 0.0, 0.0, 1.709014494633955E9, 0.0, 2024-02-26 22:14:54.633
84.0, 1613.41528028436, -3799.3194861859083, -200.41749872546643, -454.5979292639531, -0.06400000303983688, -0.04800000227987766, 1.008000047877431, 0.0, 0.0, 0.0, 0.0, 0.0, 1.709014494633955E9, 0.0, 2024-02-26 22:14:54.633
85.0, 1388.8623371948488, -4033.7251957086846, -169.93918403657153, -300.3663250412792, -0.06400000303983688, -0.04800000227987766, 1.008000047877431, 0.0, 0.0, 0.0, 0.0, 0.0, 1.709014494692849E9, 0.0, 2024-02-26 22:14:54.692
85.0, 1197.701090859715, -3901.0933836800978, -46.17841470288113, -104.99395135603845, -0.06400000303983688, -0.04800000227987766, 1.008000047877431, 0.0, 0.0, 0.0, 0.0, 0.0, 1.709014494692849E9, 0.0, 2024-02-26 22:14:54.692
86.0, 1412.8257461609319, -3668.4940458359197, -128.80963427387178, -333.9637162932195, -0.06400000303983688, -0.04800000227987766, 1.008000047877431, 0.0, 0.0, 0.0, 0.0, 0.0, 1.709014494695814E9, 0.0, 2024-02-26 22:14:54.695
86.0, 1497.8486317535862, -3467.4575936677866, -15.754328563343734, -521.0110726770945, -0.06400000303983688, -0.04800000227987766, 1.008000047877431, 0.0, 0.0, 0.0, 0.0, 0.0, 1.709014494695814E9, 0.0, 2024-02-26 22:14:54.695
87.0, 1600.5986431362107, -3586.1825877111405, -203.83389733498916, -374.56220026221126, -0.06400000303983688, -0.04800000227987766, 1.008000047877431, 0.0, 0.0, 0.0, 0.0, 0.0, 1.709014494699165E9, 0.0, 2024-02-26 22:14:54.699
87.0, 1576.2556343246251, -3828.874045585748, -175.2835010732524, -434.86995699768886, -0.06400000303983688, -0.04800000227987766, 1.008000047877431, 0.0, 0.0, 0.0, 0.0, 0.0, 1.709014494699165E9, 0.0, 2024-02-26 22:14:54.699
88.0, 1518.0010826648213, -4014.8630102821626, -341.34253890579566, -212.57591348141432, -0.06400000303983688, -0.04800000227987766, 1.008000047877431, 0.0, 0.0, 0.0, 0.0, 0.0, 1.709014494702082E9, 0.0, 2024-02-26 22:14:54.702
88.0, 1651.7473848802038, -4177.533698754851, -242.86910312250257, -433.7573367608711, -0.06400000303983688, -0.04800000227987766, 1.008000047877431, 0.0, 0.0, 0.0, 0.0, 0.0, 1.709014494702082E9, 0.0, 2024-02-26 22:14:54.702
89.0, 1538.544353121426, -4415.909312080592, -322.5832007280551, -222.71104236133397, -0.06400000303983688, -0.04800000227987766, 1.008000047877431, 0.0, 0.0, 0.0, 0.0, 0.0, 1.709014494706529E9, 0.0, 2024-02-26 22:14:54.706
89.0, 1614.0622829766944, -4299.873306105379, -209.64944176608697, -450.09508971730247, -0.06400000303983688, -0.04800000227987766, 1.008000047877431, 0.0, 0.0, 0.0, 0.0, 0.0, 1.709014494706529E9, 0.0, 2024-02-26 22:14:54.706
90.0, 1405.5348111973144, -4509.573236520868, -157.67792203184217, -300.19054974336177, -0.06400000303983688, -0.04800000227987766, 1.008000047877431, 0.0, 0.0, 0.0, 0.0, 0.0, 1.709014494709434E9, 0.0, 2024-02-26 22:14:54.709
90.0, 1187.038636086043, -4380.875799245667, -47.41445163823664, -103.7523045707494, -0.06400000303983688, -0.04800000227987766, 1.008000047877431, 0.0, 0.0, 0.0, 0.0, 0.0, 1.709014494709434E9, 0.0, 2024-02-26 22:14:54.709
91.0, 1405.0467542530969, -4169.668689148035, -133.53873776784167, -347.60313143162057, -0.06400000303983688, -0.04800000227987766, 1.008000047877431, 0.0, 0.0, 0.0, 0.0, 0.0, 1.709014494712418E9, 0.0, 2024-02-26 22:14:54.712
91.0, 1511.6301630903035, -3943.544988077134, -18.06745668593794, -520.0723577882163, -0.06400000303983688, -0.04800000227987766, 1.008000047877431, 0.0, 0.0, 0.0, 0.0, 0.0, 1.709014494712418E9, 0.0, 2024-02-26 22:14:54.712
92.0, 1598.7960113575682, -4089.7021482954733, -209.15016512200236, -372.26964158937335, -0.06400000303983688, -0.04800000227987766, 1.008000047877431, 0.0, 0.0, 0.0, 0.0, 0.0, 1.709014494721247E9, 0.0, 2024-02-26 22:14:54.721
92.0, 1569.4153573056683, -4318.260524237528, -179.73211207054555, -442.10292351199314, -0.06400000303983688, -0.04800000227987766, 1.008000047877431, 0.0, 0.0, 0.0, 0.0, 0.0, 1.709014494721247E9, 0.0, 2024-02-26 22:14:54.721
93.0, 1532.635311191436, -4493.41499876231, -334.934220331721, -198.3194148503244, -0.06400000303983688, -0.04800000227987766, 1.008000047877431, 0.0, 0.0, 0.0, 0.0, 0.0, 1.70901449473633E9, 0.0, 2024-02-26 22:14:54.736
93.0, 1652.1101551759057, -4676.067972698249, -249.66263139201328, -440.5751743800938, -0.06400000303983688, -0.04800000227987766, 1.008000047877431, 0.0, 0.0, 0.0, 0.0, 0.0, 1.70901449473633E9, 0.0, 2024-02-26 22:14:54.736
94.0, 1530.3764116181992, -4903.986825747881, -329.25705219898373, -224.11350484471768, -0.06400000303983688, -0.04800000227987766, 1.008000047877431, 0.0, 0.0, 0.0, 0.0, 0.0, 1.70901449473932E9, 0.0, 2024-02-26 22:14:54.739
94.0, 1620.5360497999936, -4790.867941738106, -195.78002278041095, -448.8684025318362, -0.06400000303983688, -0.04800000227987766, 1.008000047877431, 0.0, 0.0, 0.0, 0.0, 0.0, 1.70901449473932E9, 0.0, 2024-02-26 22:14:54.739
95.0, 1402.0380047387443, -5002.860430826433, -168.70501705119386, -304.5811922913417, -0.06400000303983688, -0.04800000227987766, 1.008000047877431, 0.0, 0.0, 0.0, 0.0, 0.0, 1.709014494797791E9, 0.0, 2024-02-26 22:14:54.797
95.0, 1178.3994671883993, -4866.499938542023, -59.87766824057326, -116.43804522044957, -0.06400000303983688, -0.04800000227987766, 1.008000047877431, 0.0, 0.0, 0.0, 0.0, 0.0, 1.709014494797791E9, 0.0, 2024-02-26 22:14:54.797
96.0, 1414.789193637669, -4657.9930362124, -124.06370123010129, -331.4766828226857, -0.06400000303983688, -0.04800000227987766, 1.008000047877431, 0.0, 0.0, 0.0, 0.0, 0.0, 1.709014494800891E9, 0.0, 2024-02-26 22:14:54.800
96.0, 1513.5225524678826, -4425.978992711287, -18.802347027231008, -525.3456167257391, -0.06400000303983688, -0.04800000227987766, 1.008000047877431, 0.0, 0.0, 0.0, 0.0, 0.0, 1.709014494800891E9, 0.0, 2024-02-26 22:14:54.800
97.0, 1585.979374209419, -4578.17235145811, -216.01849139062688, -382.9133968632668, -0.06400000303983688, -0.04800000227987766, 1.008000047877431, 0.0, 0.0, 0.0, 0.0, 0.0, 1.709014494804531E9, 0.0, 2024-02-26 22:14:54.804
97.0, 1569.6135720033199, -4805.4591614152305, -166.8388069733046, -432.5848781247623, -0.06400000303983688, -0.04800000227987766, 1.008000047877431, 0.0, 0.0, 0.0, 0.0, 0.0, 1.709014494804531E9, 0.0, 2024-02-26 22:14:54.804
98.0, 1530.2978737191297, -4982.038537823129, -340.8114731120877, -212.14582498650998, -0.06400000303983688, -0.04800000227987766, 1.008000047877431, 0.0, 0.0, 0.0, 0.0, 0.0, 1.709014494808153E9, 0.0, 2024-02-26 22:14:54.808
98.0, 1639.2187200286426, -5165.3946129507385, -251.5606306195259, -449.64069187268615, -0.06400000303983688, -0.04800000227987766, 1.008000047877431, 0.0, 0.0, 0.0, 0.0, 0.0, 1.709014494808153E9, 0.0, 2024-02-26 22:14:54.808
99.0, 1538.9931411161087, -5382.744508725591, -314.89022651920095, -220.60921858623624, -0.06400000303983688, -0.04800000227987766, 1.008000047877431, 0.0, 0.0, 0.0, 0.0, 0.0, 1.709014494813481E9, 0.0, 2024-02-26 22:14:54.813
99.0, 1621.9085930837318, -5283.388456552755, -204.30886462936178, -455.974212447647, -0.06400000303983688, -0.04800000227987766, 1.008000047877431, 0.0, 0.0, 0.0, 0.0, 0.0, 1.709014494813481E9, 0.0, 2024-02-26 22:14:54.813
100.0, 1401.2750651477836, -5502.303500459064, -171.11164267268032, -307.86482445243746, -0.06400000303983688, -0.04800000227987766, 1.008000047877431, 0.0, 0.0, 0.0, 0.0, 0.0, 1.709014494816676E9, 0.0, 2024-02-26 22:14:54.816
100.0, 1187.423845781479, -5347.624978191685, -43.77926888130605, -105.73071164730936, -0.06400000303983688, -0.04800000227987766, 1.008000047877431, 0.0, 0.0, 0.0, 0.0, 0.0, 1.709014494816676E9, 0.0, 2024-02-26 22:14:54.816
0.0, -840.381699343212, 726.6793909403495, 312.1507498016581, 560.9625539537519, -0.06400000303983688, -0.04800000227987766, 1.008000047877431, 0.0, 0.0, 0.0, 0.0, 0.0, 1.709014494819624E9, 0.0, 2024-02-26 22:14:54.819
1.0, -741.9587522093207, 965.9787595551461, 414.76051493594423, 368.19315063767135, -0.06400000303983688, -0.03200000151991844, 1.008000047877431, 0.0, 0.0, 0.0, 0.0, 0.0, 1.709014494822945E9, 0.0, 2024-02-26 22:14:54.822
1.0, -657.2724576126784, 836.1911414428614, 237.26486303890124, 518.6698953048326, -0.06400000303983688, -0.03200000151991844, 1.008000047877431, 0.0, 0.0, 0.0, 0.0, 0.0, 1.709014494822945E9, 0.0, 2024-02-26 22:14:54.822
2.0, -687.7975210510194, 1072.1115104476921, 269.67857595486566, 466.15982997696847, -0.06400000303983688, -0.03200000151991844, 1.008000047877431, 0.0, 0.0, 0.0, 0.0, 0.0, 1.709014494841625E9, 0.0, 2024-02-26 22:14:54.841
2.0, -713.0362359019928, 901.8712644646876, 90.78794137435034, 677.7353202202357, -0.06400000303983688, -0.03200000151991844, 1.008000047877431, 0.0, 0.0, 0.0, 0.0, 0.0, 1.709014494841625E9, 0.0, 2024-02-26 22:14:54.841
3.0, -592.2337274332531, 737.0875325170346, 191.22856453433633, 456.99894503550604, -0.06400000303983688, -0.03200000151991844, 1.008000047877431, 0.0, 0.0, 0.0, 0.0, 0.0, 1.709014494844383E9, 0.0, 2024-02-26 22:14:54.844
3.0, -719.3903259267099, 978.9730419511907, 117.09813756262884, 668.8979366249405, -0.06400000303983688, -0.03200000151991844, 1.008000047877431, 0.0, 0.0, 0.0, 0.0, 0.0, 1.709014494844383E9, 0.0, 2024-02-26 22:14:54.844
4.0, -625.4683483894914, 1087.0879398202524, 228.99220433691517, 437.5383756160736, -0.06400000303983688, -0.03200000151991844, 1.008000047877431, 0.0, 0.0, 0.0, 0.0, 0.0, 1.709014494847418E9, 0.0, 2024-02-26 22:14:54.847
4.0, -838.9998063095845, 883.5887635312974, 274.269303150475, 594.8591372021474, -0.06400000303983688, -0.03200000151991844, 1.008000047877431, 0.0, 0.0, 0.0, 0.0, 0.0, 1.709014494847418E9, 0.0, 2024-02-26 22:14:54.847
5.0, -1074.1048771240748, 1031.7262007761747, 389.6713960831985, 792.0939810653217, -0.06400000303983688, -0.03200000151991844, 1.008000047877431, 0.0, 0.0, 0.0, 0.0, 0.0, 1.709014494856962E9, 0.0, 2024-02-26 22:14:54.856
5.0, -850.6140656219795, 1205.1266622217372, 303.39751395536587, 555.4462015191093, -0.06400000303983688, -0.03200000151991844, 1.008000047877431, 0.0, 0.0, 0.0, 0.0, 0.0, 1.709014494856962E9, 0.0, 2024-02-26 22:14:54.856
6.0, -732.7772978181019, 966.2143732523546, 418.1918731452897, 373.11485897935927, -0.06400000303983688, -0.03200000151991844, 1.008000047877431, 0.0, 0.0, 0.0, 0.0, 0.0, 1.709014494903059E9, 0.0, 2024-02-26 22:14:54.903
6.0, -656.554396821186, 839.0259856092744, 231.27915315981954, 527.0061323060654, -0.06400000303983688, -0.03200000151991844, 1.008000047877431, 0.0, 0.0, 0.0, 0.0, 0.0, 1.709014494903059E9, 0.0, 2024-02-26 22:14:54.903
7.0, -692.9473632900044, 1075.0248925131746, 260.9702189080417, 460.9277099389583, -0.06400000303983688, -0.03200000151991844, 1.008000047877431, 0.0, 0.0, 0.0, 0.0, 0.0, 1.709014494906061E9, 0.0, 2024-02-26 22:14:54.906
7.0, -701.7940966351889, 889.3575592129491, 99.6421545194462, 681.7220535730012, -0.06400000303983688, -0.03200000151991844, 1.008000047877431, 0.0, 0.0, 0.0, 0.0, 0.0, 1.709014494906061E9, 0.0, 2024-02-26 22:14:54.906
8.0, -595.6781752924435, 736.1712570278905, 192.61045756796375, 454.8597222608514, -0.06400000303983688, -0.03200000151991844, 1.008000047877431, 0.0, 0.0, 0.0, 0.0, 0.0, 1.709014494909022E9, 0.0, 2024-02-26 22:14:54.909
8.0, -726.8514263383113, 969.8850850588642, 113.52840305492282, 676.9611609294079, -0.06400000303983688, -0.03200000151991844, 1.008000047877431, 0.0, 0.0, 0.0, 0.0, 0.0, 1.709014494909022E9, 0.0, 2024-02-26 22:14:54.909
9.0, -623.194489216432, 1091.9311102628708, 238.60935707297176, 439.5055629927665, -0.06400000303983688, -0.03200000151991844, 1.008000047877431, 0.0, 0.0, 0.0, 0.0, 0.0, 1.709014494912083E9, 0.0, 2024-02-26 22:14:54.912
9.0, -844.2805450470187, 878.4314414924011, 273.2950592120178, 588.2357743806206, -0.06400000303983688, -0.03200000151991844, 1.008000047877431, 0.0, 0.0, 0.0, 0.0, 0.0, 1.709014494912083E9, 0.0, 2024-02-26 22:14:54.912
10.0, -1073.7795058279298, 1018.3597983345389, 392.69884509732947, 792.8457009564154, -0.06400000303983688, -0.03200000151991844, 1.008000047877431, 0.0, 0.0, 0.0, 0.0, 0.0, 1.709014494916352E9, 0.0, 2024-02-26 22:14:54.916
10.0, -837.2588828802109, 1214.7943036071956, 318.28044582903385, 565.5177520997822, -0.06400000303983688, -0.03200000151991844, 1.008000047877431, 0.0, 0.0, 0.0, 0.0, 0.0, 1.709014494916352E9, 0.0, 2024-02-26 22:14:54.916
11.0, -740.3692947281525, 1447.5189280998893, 422.64048414258286, 367.6209459444508, -0.06400000303983688, -0.03200000151991844, 1.008000047877431, 0.0, 0.0, 0.0, 0.0, 0.0, 1.709014494919451E9, 0.0, 2024-02-26 22:14:54.919
11.0, -663.6115880375728, 1320.4128182558343, 229.9084798260592, 526.1721346159466, -0.06400000303983688, -0.03200000151991844, 1.008000047877431, 0.0, 0.0, 0.0, 0.0, 0.0, 1.709014494919451E9, 0.0, 2024-02-26 22:14:54.919
12.0, -684.6036464888602, 1559.7551957201213, 269.8169522532262, 463.34368531033397, -0.06400000303983688, -0.03200000151991844, 1.008000047877431, 0.0, 0.0, 0.0, 0.0, 0.0, 1.709014494922372E9, 0.0, 2024-02-26 22:14:54.922
12.0, -701.2592909415253, 1379.200305659324, 100.20874936273322, 684.3586830417626, -0.06400000303983688, -0.03200000151991844, 1.008000047877431, 0.0, 0.0, 0.0, 0.0, 0.0, 1.709014494922372E9, 0.0, 2024-02-26 22:14:54.922
13.0, -603.2140737031586, 1217.490771475248, 185.35692160390317, 443.8644163911231, -0.06400000303983688, -0.03200000151991844, 1.008000047877431, 0.0, 0.0, 0.0, 0.0, 0.0, 1.709014494929951E9, 0.0, 2024-02-26 22:14:54.929
13.0, -721.5258088014089, 984.8222454818897, 124.65273547312245, 681.3293640776537, -0.06400000303983688, -0.03200000151991844, 1.008000047877431, 0.0, 0.0, 0.0, 0.0, 0.0, 1.709014494929951E9, 0.0, 2024-02-26 22:14:54.929
14.0, -621.0403068419546, 1082.3382668765262, 235.40987266087905, 439.8084948891774, -0.06400000303983688, -0.03200000151991844, 1.008000047877431, 0.0, 0.0, 0.0, 0.0, 0.0, 1.709014494946122E9, 0.0, 2024-02-26 22:14:54.946
14.0, -840.3312106938101, 888.0729035781696, 265.4992377543822, 583.7965131332166, -0.06400000303983688, -0.03200000151991844, 1.008000047877431, 0.0, 0.0, 0.0, 0.0, 0.0, 1.709014494946122E9, 0.0, 2024-02-26 22:14:54.946
15.0, -1068.8016989869066, 1032.8706101626158, 400.40116905607283, 805.4267244073562, -0.06400000303983688, -0.03200000151991844, 1.008000047877431, 0.0, 0.0, 0.0, 0.0, 0.0, 1.709014494949215E9, 0.0, 2024-02-26 22:14:54.949
15.0, -839.536481953226, 1214.2968969130889, 315.9411384067498, 561.9274481423199, -0.06400000303983688, -0.03200000151991844, 1.008000047877431, 0.0, 0.0, 0.0, 0.0, 0.0, 1.709014494949215E9, 0.0, 2024-02-26 22:14:54.949
16.0, -735.8963743811473, 1443.7640685443766, 411.856482620351, 361.1284796213731, -0.06400000303983688, -0.03200000151991844, 1.008000047877431, 0.0, 0.0, 0.0, 0.0, 0.0, 1.709014494960081E9, 0.0, 2024-02-26 22:14:54.960
16.0, -657.4444930106401, 1330.667623934336, 239.79116545896977, 534.0708033223636, -0.06400000303983688, -0.03200000151991844, 1.008000047877431, 0.0, 0.0, 0.0, 0.0, 0.0, 1.709014494960081E9, 0.0, 2024-02-26 22:14:54.960
17.0, -696.3244929499924, 1566.730109137483, 267.77683682739735, 465.6325040832162, -0.06400000303983688, -0.03200000151991844, 1.008000047877431, 0.0, 0.0, 0.0, 0.0, 0.0, 1.709014495006459E9, 0.0, 2024-02-26 22:14:55.006
17.0, -705.8705875868909, 1361.3086242713034, 90.80477092415094, 671.8487176899798, -0.06400000303983688, -0.03200000151991844, 1.008000047877431, 0.0, 0.0, 0.0, 0.0, 0.0, 1.709014495006459E9, 0.0, 2024-02-26 22:14:55.006
18.0, -596.9834003769793, 1235.281475564465, 195.87539022928104, 460.7089257915504, -0.06400000303983688, -0.03200000151991844, 1.008000047877431, 0.0, 0.0, 0.0, 0.0, 0.0, 1.709014495023588E9, 0.0, 2024-02-26 22:14:55.023
18.0, -730.7409222922288, 1472.6155267525464, 122.9118120437488, 682.0698642688803, -0.06400000303983688, -0.03200000151991844, 1.008000047877431, 0.0, 0.0, 0.0, 0.0, 0.0, 1.709014495023588E9, 0.0, 2024-02-26 22:14:55.023
19.0, -626.1340505816042, 1568.4373734672554, 222.27721396647394, 920.3351505459286, -0.06400000303983688, -0.03200000151991844, 1.008000047877431, 0.0, 0.0, 0.0, 0.0, 0.0, 1.709014495028069E9, 0.0, 2024-02-26 22:14:55.028
19.0, -830.7495870073326, 1383.1963887619786, 274.64142319606617, 1079.1518721142784, -0.06400000303983688, -0.03200000151991844, 1.008000047877431, 0.0, 0.0, 0.0, 0.0, 0.0, 1.709014495028069E9, 0.0, 2024-02-26 22:14:55.028
20.0, -1069.508540078532, 1516.894072277937, 392.8035622960888, 1288.5301711335778, -0.06400000303983688, -0.03200000151991844, 1.008000047877431, 0.0, 0.0, 0.0, 0.0, 0.0, 1.709014495031737E9, 0.0, 2024-02-26 22:14:55.031
20.0, -844.8284403905272, 1694.7225752710365, 307.34871825855225, 1528.5270310901105, -0.06400000303983688, -0.03200000151991844, 1.008000047877431, 0.0, 0.0, 0.0, 0.0, 0.0, 1.709014495031737E9, 0.0, 2024-02-26 22:14:55.031
21.0, -728.1884405724704, 1450.780120861251, 418.4854552918114, 1347.0558655401692, -0.06400000303983688, -0.03200000151991844, 1.008000047877431, 0.0, 0.0, 0.0, 0.0, 0.0, 1.709014495035194E9, 0.0, 2024-02-26 22:14:55.035
21.0, -656.4608993222937, 1337.9192899484187, 233.4277256843634, 1507.271309691947, -0.06400000303983688, -0.03200000151991844, 1.008000047877431, 0.0, 0.0, 0.0, 0.0, 0.0, 1.709014495035194E9, 0.0, 2024-02-26 22:14:55.035
22.0, -688.0368746481836, 1560.2376428144053, 260.64671756187454, 1439.0835837498307, -0.06400000303983688, -0.03200000151991844, 1.008000047877431, 0.0, 0.0, 0.0, 0.0, 0.0, 1.709014495038472E9, 0.0, 2024-02-26 22:14:55.038
22.0, -694.8416226175614, 1383.2693168111145, 101.95154274208471, 1660.8316018725745, -0.06400000303983688, -0.03200000151991844, 1.008000047877431, 0.0, 0.0, 0.0, 0.0, 0.0, 1.709014495038472E9, 0.0, 2024-02-26 22:14:55.038
23.0, -599.5938505460508, 1237.076627543196, 185.491558002308, 1433.666338664014, -0.06400000303983688, -0.03200000151991844, 1.008000047877431, 0.0, 0.0, 0.0, 0.0, 0.0, 1.70901449504147E9, 0.0, 2024-02-26 22:14:55.041
23.0, -730.5352277946658, 1475.177358222194, 119.46549423458055, 1658.6475002984516, -0.06400000303983688, -0.03200000151991844, 1.008000047877431, 0.0, 0.0, 0.0, 0.0, 0.0, 1.70901449504147E9, 0.0, 2024-02-26 22:14:55.041
24.0, -622.012680830434, 1566.3056304925121, 228.8650477384217, 1416.0233606230468, -0.06400000303983688, -0.03200000151991844, 1.008000047877431, 0.0, 0.0, 0.0, 0.0, 0.0, 1.7090144950444E9, 0.0, 2024-02-26 22:14:55.044
24.0, -834.7138809603639, 1389.9431682820432, 267.6459403289482, 1571.758404627908, -0.06400000303983688, -0.03200000151991844, 1.008000047877431, 0.0, 0.0, 0.0, 0.0, 0.0, 1.7090144950444E9, 0.0, 2024-02-26 22:14:55.044
25.0, -591.2894026944414, 1520.308600937482, 388.75886049401015, 1772.2993200519122, -0.06400000303983688, -0.03200000151991844, 1.008000047877431, 0.0, 0.0, 0.0, 0.0, 0.0, 1.709014495049975E9, 0.0, 2024-02-26 22:14:55.049
25.0, -834.6633923109621, 1699.9584352090023, 315.58958781091496, 1541.1641530403867, -0.06400000303983688, -0.03200000151991844, 1.008000047877431, 0.0, 0.0, 0.0, 0.0, 0.0, 1.709014495049975E9, 0.0, 2024-02-26 22:14:55.049
26.0, -728.6708876667544, 1460.245807649102, 415.72727907449007, 1340.1407905220985, -0.06400000303983688, -0.03200000151991844, 1.008000047877431, 0.0, 0.0, 0.0, 0.0, 0.0, 1.709014495066647E9, 0.0, 2024-02-26 22:14:55.066
26.0, -665.2384445182979, 1335.6454307753593, 227.8908037999645, 1504.701998422388, -0.06400000303983688, -0.03200000151991844, 1.008000047877431, 0.0, 0.0, 0.0, 0.0, 0.0, 1.709014495066647E9, 0.0, 2024-02-26 22:14:55.066
27.0, -686.765308663249, 1561.5877466984093, 281.8052015611902, 1449.6600208245218, -0.06400000303983688, -0.03200000151991844, 1.008000047877431, 0.0, 0.0, 0.0, 0.0, 0.0, 1.709014495069688E9, 0.0, 2024-02-26 22:14:55.069
27.0, -706.00148408534, 1377.6220678780228, 94.42873398121446, 1655.1170347402804, -0.06400000303983688, -0.03200000151991844, 1.008000047877431, 0.0, 0.0, 0.0, 0.0, 0.0, 1.709014495069688E9, 0.0, 2024-02-26 22:14:55.069
28.0, -601.2655858262442, 1234.122106578201, 183.32054607803002, 1433.640159364324, -0.06400000303983688, -0.03200000151991844, 1.008000047877431, 0.0, 0.0, 0.0, 0.0, 0.0, 1.709014495112696E9, 0.0, 2024-02-26 22:14:55.112
28.0, -720.8301874096505, 991.5054467027076, 134.46436300687492, 1668.9509246763773, -0.06400000303983688, -0.03200000151991844, 1.008000047877431, 0.0, 0.0, 0.0, 0.0, 0.0, 1.709014495112696E9, 0.0, 2024-02-26 22:14:55.112
29.0, -622.9252164196223, 1078.5011295219883, 231.5222466569394, 1903.4314321982674, -0.06400000303983688, -0.03200000151991844, 1.008000047877431, 0.0, 0.0, 0.0, 0.0, 0.0, 1.70901449511577E9, 0.0, 2024-02-26 22:14:55.115
29.0, -840.4882864919491, 888.2823379756883, 259.060999980662, 2049.6895697154105, -0.06400000303983688, -0.03200000151991844, 1.008000047877431, 0.0, 0.0, 0.0, 0.0, 0.0, 1.70901449511577E9, 0.0, 2024-02-26 22:14:55.115
30.0, -1080.8591364440508, 1047.0971895940602, 399.2436700197868, 2274.457557052374, -0.06400000303983688, -0.03200000151991844, 1.008000047877431, 0.0, 0.0, 0.0, 0.0, 0.0, 1.709014495120601E9, 0.0, 2024-02-26 22:14:55.120
30.0, -842.9173515131697, 1201.8804290601984, 313.87110378127545, 2031.508046080824, -0.06400000303983688, -0.03200000151991844, 1.008000047877431, 0.0, 0.0, 0.0, 0.0, 0.0, 1.709014495120601E9, 0.0, 2024-02-26 22:14:55.120
31.0, -727.0627306858078, 1437.922344813589, 410.7962209829129, 1830.0545950676315, -0.06400000303983688, -0.03200000151991844, 1.008000047877431, 0.0, 0.0, 0.0, 0.0, 0.0, 1.70901449512483E9, 0.0, 2024-02-26 22:14:55.124
31.0, -657.5342506095767, 1353.2640994666144, 242.44462447753176, 2009.9755720859393, -0.06400000303983688, -0.03200000151991844, 1.008000047877431, 0.0, 0.0, 0.0, 0.0, 0.0, 1.70901449512483E9, 0.0, 2024-02-26 22:14:55.124
32.0, -697.0425537414849, 1552.5259691057727, 279.06572484364733, 1936.9596353010274, -0.06400000303983688, -0.03200000151991844, 1.008000047877431, 0.0, 0.0, 0.0, 0.0, 0.0, 1.709014495130479E9, 0.0, 2024-02-26 22:14:55.130
32.0, -695.340899261646, 1358.9450074993074, 89.53133498923853, 2143.9799273982644, -0.06400000303983688, -0.03200000151991844, 1.008000047877431, 0.0, 0.0, 0.0, 0.0, 0.0, 1.709014495130479E9, 0.0, 2024-02-26 22:14:55.130
33.0, -597.3293411228806, 1233.8864928809926, 190.82465533912182, 1929.5078846393153, -0.06400000303983688, -0.03200000151991844, 1.008000047877431, 0.0, 0.0, 0.0, 0.0, 0.0, 1.709014495141715E9, 0.0, 2024-02-26 22:14:55.141
33.0, -737.5120111620054, 1474.6500323284417, 131.08910329686478, 2163.0197580726817, -0.06400000303983688, -0.03200000151991844, 1.008000047877431, 0.0, 0.0, 0.0, 0.0, 0.0, 1.709014495141715E9, 0.0, 2024-02-26 22:14:55.141
34.0, -628.8323883996345, 1555.729193417821, 224.85587498592213, 2394.108176334761, -0.06400000303983688, -0.03200000151991844, 1.008000047877431, 0.0, 0.0, 0.0, 0.0, 0.0, 1.709014495156723E9, 0.0, 2024-02-26 22:14:55.156
34.0, -826.3346351096407, 1387.8563041067682, 276.25519002694637, 2548.9718236499466, -0.06400000303983688, -0.03200000151991844, 1.008000047877431, 0.0, 0.0, 0.0, 0.0, 0.0, 1.709014495156723E9, 0.0, 2024-02-26 22:14:55.156
35.0, -593.7670864150859, 1531.6479776031338, 397.02403939608485, 2761.5439972314052, -0.06400000303983688, -0.03200000151991844, 1.008000047877431, 0.0, 0.0, 0.0, 0.0, 0.0, 1.709014495159814E9, 0.0, 2024-02-26 22:14:55.159
35.0, -838.6744350134395, 1686.7977272649296, 304.7176986397244, 3001.323942990508, -0.06400000303983688, -0.03200000151991844, 1.008000047877431, 0.0, 0.0, 0.0, 0.0, 0.0, 1.709014495159814E9, 0.0, 2024-02-26 22:14:55.159
36.0, -719.667078523431, 1455.9935413994826, 418.2255322448909, 2814.048452709336, -0.06400000303983688, -0.03200000151991844, 1.008000047877431, 0.0, 0.0, 0.0, 0.0, 0.0, 1.70901449516268E9, 0.0, 2024-02-26 22:14:55.162
36.0, -662.8392986967228, 1348.095557727851, 235.43792191054672, 2981.979310469702, -0.06400000303983688, -0.03200000151991844, 1.008000047877431, 0.0, 0.0, 0.0, 0.0, 0.0, 1.70901449516268E9, 0.0, 2024-02-26 22:14:55.162
37.0, -702.3513417285867, 1558.2480160379782, 267.9488722253591, 2912.6583948410116, -0.06400000303983688, -0.03200000151991844, 1.008000047877431, 0.0, 0.0, 0.0, 0.0, 0.0, 1.70901449517066E9, 0.0, 2024-02-26 22:14:55.170
37.0, -690.3612224706449, 1374.0654230201617, 92.72333960141987, 3122.147020909004, -0.06400000303983688, -0.03200000151991844, 1.008000047877431, 0.0, 0.0, 0.0, 0.0, 0.0, 1.70901449517066E9, 0.0, 2024-02-26 22:14:55.170
38.0, -600.7419998324476, 1249.7511484930292, 187.29979963088408, 2909.2831351310015, -0.06400000303983688, -0.03200000151991844, 1.008000047877431, 0.0, 0.0, 0.0, 0.0, 0.0, 1.709014495185687E9, 0.0, 2024-02-26 22:14:55.185
38.0, -739.8961973837577, 1467.446985013783, 122.85571354441345, 3131.72116479557, -0.06400000303983688, -0.03200000151991844, 1.008000047877431, 0.0, 0.0, 0.0, 0.0, 0.0, 1.709014495185687E9, 0.0, 2024-02-26 22:14:55.185
39.0, -614.2187293227762, 1562.0421445430256, 233.20520163699985, 3372.402426443994, -0.06400000303983688, -0.03200000151991844, 1.008000047877431, 0.0, 0.0, 0.0, 0.0, 0.0, 1.709014495188638E9, 0.0, 2024-02-26 22:14:55.188
39.0, -828.1428767382167, 1382.3137723724358, 265.16451670834795, 3524.8762776874937, -0.06400000303983688, -0.03200000151991844, 1.008000047877431, 0.0, 0.0, 0.0, 0.0, 0.0, 1.709014495188638E9, 0.0, 2024-02-26 22:14:55.188
40.0, -605.923631221056, 1528.7084162379615, 394.7146511734463, 3750.6428183126263, -0.06400000303983688, -0.03200000151991844, 1.008000047877431, 0.0, 0.0, 0.0, 0.0, 0.0, 1.709014495248104E9, 0.0, 2024-02-26 22:14:55.248
40.0, -835.3477940028533, 1689.976642227266, 319.02842582017183, 3992.48718884727, -0.06400000303983688, -0.03200000151991844, 1.008000047877431, 0.0, 0.0, 0.0, 0.0, 0.0, 1.709014495248104E9, 0.0, 2024-02-26 22:14:55.248
41.0, -721.2097872551531, 1451.2401285558008, 416.64542451361194, 3790.2745381430723, -0.06400000303983688, -0.03200000151991844, 1.008000047877431, 0.0, 0.0, 0.0, 0.0, 0.0, 1.709014495251455E9, 0.0, 2024-02-26 22:14:55.251
41.0, -669.7225845651701, 1343.1214907867834, 230.26751022180542, 3963.830205436796, -0.06400000303983688, -0.03200000151991844, 1.008000047877431, 0.0, 0.0, 0.0, 0.0, 0.0, 1.709014495251455E9, 0.0, 2024-02-26 22:14:55.251
42.0, -695.2586214626208, 1563.5661537749693, 278.72165404772386, 3899.9284048439004, -0.06400000303983688, -0.03200000151991844, 1.008000047877431, 0.0, 0.0, 0.0, 0.0, 0.0, 1.709014495254638E9, 0.0, 2024-02-26 22:14:55.254
42.0, -687.8498796503991, 1363.7956577418372, 95.17110412241891, 4101.97463000007, -0.06400000303983688, -0.03200000151991844, 1.008000047877431, 0.0, 0.0, 0.0, 0.0, 0.0, 1.709014495254638E9, 0.0, 2024-02-26 22:14:55.254
43.0, -603.6310725482181, 1244.5003289552405, 186.32555569242686, 3886.085165157914, -0.06400000303983688, -0.03200000151991844, 1.008000047877431, 0.0, 0.0, 0.0, 0.0, 0.0, 1.709014495257732E9, 0.0, 2024-02-26 22:14:55.257
43.0, -744.0830153841525, 1487.5227679759264, 135.16559424856678, 4123.1200243495405, -0.06400000303983688, -0.03200000151991844, 1.008000047877431, 0.0, 0.0, 0.0, 0.0, 0.0, 1.709014495257732E9, 0.0, 2024-02-26 22:14:55.257
44.0, -612.230972496327, 1549.8650302872993, 230.7237780163996, 4355.064879701473, -0.06400000303983688, -0.03200000151991844, 1.008000047877431, 0.0, 0.0, 0.0, 0.0, 0.0, 1.709014495261828E9, 0.0, 2024-02-26 22:14:55.261
44.0, -823.929879438132, 1385.8965965299867, 257.5332508487627, 4502.560924103949, -0.06400000303983688, -0.03200000151991844, 1.008000047877431, 0.0, 0.0, 0.0, 0.0, 0.0, 1.709014495261828E9, 0.0, 2024-02-26 22:14:55.261
45.0, -594.6422230047174, 1542.3141722767614, 402.9704803256318, 4732.733066876885, -0.06400000303983688, -0.03200000151991844, 1.008000047877431, 0.0, 0.0, 0.0, 0.0, 0.0, 1.709014495264989E9, 0.0, 2024-02-26 22:14:55.264
45.0, -832.3353045885451, 1675.454610699322, 316.44228500081226, 4967.265932998154, -0.06400000303983688, -0.03200000151991844, 1.008000047877431, 0.0, 0.0, 0.0, 0.0, 0.0, 1.709014495264989E9, 0.0, 2024-02-26 22:14:55.264
46.0, -723.3620996796526, 1445.1440916280262, 409.010418754071, 4763.516183412168, -0.06400000303983688, -0.03200000151991844, 1.008000047877431, 0.0, 0.0, 0.0, 0.0, 0.0, 1.709014495268488E9, 0.0, 2024-02-26 22:14:55.268
46.0, -666.4520420539193, 1360.325030582957, 236.1148438025266, 4946.171027298085, -0.06400000303983688, -0.03200000151991844, 1.008000047877431, 0.0, 0.0, 0.0, 0.0, 0.0, 1.709014495268488E9, 0.0, 2024-02-26 22:14:55.268
47.0, -697.2987368884496, 1558.1507786391303, 276.7712962208316, 4883.529572990257, -0.06400000303983688, -0.03200000151991844, 1.008000047877431, 0.0, 0.0, 0.0, 0.0, 0.0, 1.709014495275764E9, 0.0, 2024-02-26 22:14:55.275
47.0, -694.026324427221, 1352.7442533727735, 86.56746427435428, 5072.905017096549, -0.06400000303983688, -0.03200000151991844, 1.008000047877431, 0.0, 0.0, 0.0, 0.0, 0.0, 1.709014495275764E9, 0.0, 2024-02-26 22:14:55.275
48.0, -589.8663707613014, 1261.6515101520345, 193.31355875963345, 4868.949573013, -0.06400000303983688, -0.03200000151991844, 1.008000047877431, 0.0, 0.0, 0.0, 0.0, 0.0, 1.709014495278696E9, 0.0, 2024-02-26 22:14:55.278
48.0, -743.8380519370548, 1482.7618753323331, 132.5831933291629, 5101.552650757134, -0.06400000303983688, -0.03200000151991844, 1.008000047877431, 0.0, 0.0, 0.0, 0.0, 0.0, 1.709014495278696E9, 0.0, 2024-02-26 22:14:55.278
49.0, -615.7932272041216, 1550.87106337538, 222.2585144666955, 5320.594851261936, -0.06400000303983688, -0.03200000151991844, 1.008000047877431, 0.0, 0.0, 0.0, 0.0, 0.0, 1.709014495289952E9, 0.0, 2024-02-26 22:14:55.289
49.0, -817.1961895679124, 1393.623229838442, 266.9933277866803, 5486.868933341932, -0.06400000303983688, -0.03200000151991844, 1.008000047877431, 0.0, 0.0, 0.0, 0.0, 0.0, 1.709014495289952E9, 0.0, 2024-02-26 22:14:55.289
50.0, -603.6348124481738, 1547.7744262120686, 399.56156151602045, 5705.466085752007, -0.06400000303983688, -0.03200000151991844, 1.008000047877431, 0.0, 0.0, 0.0, 0.0, 0.0, 1.709014495338318E9, 0.0, 2024-02-26 22:14:55.338
50.0, -838.4855700656772, 1672.754402931314, 306.68675596639514, 5939.374388580676, -0.06400000303983688, -0.03200000151991844, 1.008000047877431, 0.0, 0.0, 0.0, 0.0, 0.0, 1.709014495338318E9, 0.0, 2024-02-26 22:14:55.338
51.0, -713.528032746166, 1453.4130104300566, 418.08154609659687, 5750.58423881745, -0.06400000303983688, -0.04800000227987766, 1.008000047877431, 0.0, 0.0, 0.0, 0.0, 0.0, 1.70901449534147E9, 0.0, 2024-02-26 22:14:55.341
51.0, -655.6194218322635, 1361.4320409698412, 232.238437498454, 5925.2955351974815, -0.06400000303983688, -0.04800000227987766, 1.008000047877431, 0.0, 0.0, 0.0, 0.0, 0.0, 1.70901449534147E9, 0.0, 2024-02-26 22:14:55.341
52.0, -696.9901951421052, 1547.9109325604513, 265.0971985091455, 5856.3934883638285, -0.06400000303983688, -0.04800000227987766, 1.008000047877431, 0.0, 0.0, 0.0, 0.0, 0.0, 1.709014495344324E9, 0.0, 2024-02-26 22:14:55.344
52.0, -675.8709800923243, 1368.9193206811324, 93.15903794625774, 6057.837589627132, -0.06400000303983688, -0.04800000227987766, 1.008000047877431, 0.0, 0.0, 0.0, 0.0, 0.0, 1.709014495344324E9, 0.0, 2024-02-26 22:14:55.344
53.0, -585.6870325608179, 1260.7838533623144, 187.03613668400794, 5843.530102466233, -0.06400000303983688, -0.04800000227987766, 1.008000047877431, 0.0, 0.0, 0.0, 0.0, 0.0, 1.709014495346928E9, 0.0, 2024-02-26 22:14:55.346
53.0, -745.4106798684224, 1489.5086548523977, 122.01236610440537, 6078.421998983249, -0.06400000303983688, -0.04800000227987766, 1.008000047877431, 0.0, 0.0, 0.0, 0.0, 0.0, 1.709014495346928E9, 0.0, 2024-02-26 22:14:55.346
54.0, -604.9905261821114, 1561.3951418506913, 223.2327584051527, 6310.071402238682, -0.06400000303983688, -0.04800000227987766, 1.008000047877431, 0.0, 0.0, 0.0, 0.0, 0.0, 1.709014495350502E9, 0.0, 2024-02-26 22:14:55.350
54.0, -819.8496485864744, 1392.3479239535518, 254.77320468146354, 6458.3490857318975, -0.06400000303983688, -0.04800000227987766, 1.008000047877431, 0.0, 0.0, 0.0, 0.0, 0.0, 1.709014495350502E9, 0.0, 2024-02-26 22:14:55.350
55.0, -615.7876173541881, 1560.0038990671746, 390.183762377128, 6685.069300845731, -0.06400000303983688, -0.04800000227987766, 1.008000047877431, 0.0, 0.0, 0.0, 0.0, 0.0, 1.70901449535365E9, 0.0, 2024-02-26 22:14:55.353
55.0, -835.809671647381, 1680.9373040343635, 307.7208383041434, 6928.2899545640685, -0.06400000303983688, -0.04800000227987766, 1.008000047877431, 0.0, 0.0, 0.0, 0.0, 0.0, 1.70901449535365E9, 0.0, 2024-02-26 22:14:55.353
56.0, -709.7226845412515, 1452.5827526398934, 410.3754822378978, 6722.3673231038265, -0.06400000303983688, -0.04800000227987766, 1.008000047877431, 0.0, 0.0, 0.0, 0.0, 0.0, 1.709014495365675E9, 0.0, 2024-02-26 22:14:55.365
56.0, -665.2403144682758, 1366.7239994071424, 227.91698309965432, 6899.71524895262, -0.06400000303983688, -0.04800000227987766, 1.008000047877431, 0.0, 0.0, 0.0, 0.0, 0.0, 1.709014495365675E9, 0.0, 2024-02-26 22:14:55.365
57.0, -699.2135656657629, 1568.3046070188284, 274.51239664759487, 6847.754948918242, -0.06400000303983688, -0.04800000227987766, 1.008000047877431, 0.0, 0.0, 0.0, 0.0, 0.0, 1.709014495368621E9, 0.0, 2024-02-26 22:14:55.368
57.0, -679.552911598701, 1356.2223603315651, 80.17597525008023, 7036.62176663056, -0.06400000303983688, -0.04800000227987766, 1.008000047877431, 0.0, 0.0, 0.0, 0.0, 0.0, 1.709014495368621E9, 0.0, 2024-02-26 22:14:55.368
58.0, -594.3654704079963, 1254.7364351339638, 175.12642527511343, 6820.481728491373, -0.06400000303983688, -0.04800000227987766, 1.008000047877431, 0.0, 0.0, 0.0, 0.0, 0.0, 1.709014495379948E9, 0.0, 2024-02-26 22:14:55.379
58.0, -743.2172285444103, 1494.4004439944401, 131.25926874484867, 6584.608108235989, -0.06400000303983688, -0.04800000227987766, 1.008000047877431, 0.0, 0.0, 0.0, 0.0, 0.0, 1.709014495379948E9, 0.0, 2024-02-26 22:14:55.379
59.0, -607.5355281019583, 1548.9973734975792, 225.6954825259745, 6799.450401090551, -0.06400000303983688, -0.04800000227987766, 1.008000047877431, 0.0, 0.0, 0.0, 0.0, 0.0, 1.709014495396597E9, 0.0, 2024-02-26 22:14:55.396
59.0, -821.9458625116386, 1390.5527719748206, 253.7690415433608, 6940.8803277648985, -0.06400000303983688, -0.04800000227987766, 1.008000047877431, 0.0, 0.0, 0.0, 0.0, 0.0, 1.709014495396597E9, 0.0, 2024-02-26 22:14:55.396
60.0, -603.4889563499019, 1561.9823061437346, 408.2156900134869, 7185.499704066664, -0.06400000303983688, -0.04800000227987766, 1.008000047877431, 0.0, 0.0, 0.0, 0.0, 0.0, 1.709014495399668E9, 0.0, 2024-02-26 22:14:55.399
60.0, -827.8754738913849, 1681.3860920290463, 306.4361826693639, 7418.454332406633, -0.06400000303983688, -0.04800000227987766, 1.008000047877431, 0.0, 0.0, 0.0, 0.0, 0.0, 1.709014495399668E9, 0.0, 2024-02-26 22:14:55.399
61.0, -716.0300258165225, 1443.2704017502256, 401.08744069794193, 7208.1672376981005, -0.06400000303983688, -0.03200000151991844, 1.008000047877431, 0.0, 0.0, 0.0, 0.0, 0.0, 1.709014495441074E9, 0.0, 2024-02-26 22:14:55.441
61.0, -655.7989370301366, 1377.7903633760288, 235.44727166043594, 7396.678764914628, -0.06400000303983688, -0.03200000151991844, 1.008000047877431, 0.0, 0.0, 0.0, 0.0, 0.0, 1.709014495441074E9, 0.0, 2024-02-26 22:14:55.441
62.0, -710.524893081747, 1560.6490318095312, 269.7795532536693, 7330.7873375453055, -0.06400000303983688, -0.03200000151991844, 1.008000047877431, 0.0, 0.0, 0.0, 0.0, 0.0, 1.709014495445279E9, 0.0, 2024-02-26 22:14:55.445
62.0, -681.0395218310878, 1348.3648305246606, 81.90193907963112, 7515.944174501579, -0.06400000303983688, -0.03200000151991844, 1.008000047877431, 0.0, 0.0, 0.0, 0.0, 0.0, 1.709014495445279E9, 0.0, 2024-02-26 22:14:55.445
63.0, -584.5987216737121, 1281.3420834187418, 191.35946103278548, 7310.810661931988, -0.06400000303983688, -0.03200000151991844, 1.008000047877431, 0.0, 0.0, 0.0, 0.0, 0.0, 1.709014495456112E9, 0.0, 2024-02-26 22:14:55.456
63.0, -749.5058703199029, 1494.1984893968329, 129.48094631591812, 7070.617457227781, -0.06400000303983688, -0.03200000151991844, 1.008000047877431, 0.0, 0.0, 0.0, 0.0, 0.0, 1.709014495456112E9, 0.0, 2024-02-26 22:14:55.456
64.0, -613.2407454843633, 1541.0463461917825, 216.5682566841133, 7284.363959395327, -0.06400000303983688, -0.03200000151991844, 1.008000047877431, 0.0, 0.0, 0.0, 0.0, 0.0, 1.709014495472961E9, 0.0, 2024-02-26 22:14:55.472
64.0, -812.4932653736323, 1403.017858527135, 260.6747668115422, 7435.139896058943, -0.06400000303983688, -0.03200000151991844, 1.008000047877431, 0.0, 0.0, 0.0, 0.0, 0.0, 1.709014495472961E9, 0.0, 2024-02-26 22:14:55.472
65.0, -612.1636542971246, 1573.807869803626, 401.13418944738805, 7678.087537080515, -0.06400000303983688, -0.03200000151991844, 1.008000047877431, 0.0, 0.0, 0.0, 0.0, 0.0, 1.709014495475916E9, 0.0, 2024-02-26 22:14:55.475
65.0, -836.9727805336006, 1660.547369475942, 299.0816694064997, 7903.035039615352, -0.06400000303983688, -0.03200000151991844, 1.008000047877431, 0.0, 0.0, 0.0, 0.0, 0.0, 1.709014495475916E9, 0.0, 2024-02-26 22:14:55.475
66.0, -706.4577518799342, 1460.1223909505643, 408.9281409550458, 7705.84133465169, -0.06400000303983688, -0.03200000151991844, 1.008000047877431, 0.0, 0.0, 0.0, 0.0, 0.0, 1.709014495478972E9, 0.0, 2024-02-26 22:14:55.478
66.0, -671.0708184991963, 1377.4575122799724, 236.83290459401906, 7883.649268195033, -0.06400000303983688, -0.03200000151991844, 1.008000047877431, 0.0, 0.0, 0.0, 0.0, 0.0, 1.709014495478972E9, 0.0, 2024-02-26 22:14:55.478
67.0, -709.7600835408084, 1553.1954111978412, 270.81737549137324, 7822.473854669835, -0.06400000303983688, -0.03200000151991844, 1.008000047877431, 0.0, 0.0, 0.0, 0.0, 0.0, 1.70901449548178E9, 0.0, 2024-02-26 22:14:55.481
67.0, -680.880576082971, 1357.1124565210193, 90.07175053283572, 8017.219795112498, -0.06400000303983688, -0.03200000151991844, 1.008000047877431, 0.0, 0.0, 0.0, 0.0, 0.0, 1.70901449548178E9, 0.0, 2024-02-26 22:14:55.481
68.0, -588.9874942717142, 1275.8967890832573, 188.78080001333728, 7804.744858929887, -0.06400000303983688, -0.03200000151991844, 1.008000047877431, 0.0, 0.0, 0.0, 0.0, 0.0, 1.709014495486402E9, 0.0, 2024-02-26 22:14:55.486
68.0, -752.447301635053, 1485.6677775979042, 126.12812600564212, 8044.382688490674, -0.06400000303983688, -0.03200000151991844, 1.008000047877431, 0.0, 0.0, 0.0, 0.0, 0.0, 1.709014495486402E9, 0.0, 2024-02-26 22:14:55.486
69.0, -608.3583060922101, 1533.8919175765477, 224.8465252360329, 8273.971406870522, -0.06400000303983688, -0.03200000151991844, 1.008000047877431, 0.0, 0.0, 0.0, 0.0, 0.0, 1.709014495489227E9, 0.0, 2024-02-26 22:14:55.489
69.0, -813.4488098123111, 1401.8771890406497, 259.1731969793327, 8420.64093338279, -0.06400000303983688, -0.03200000151991844, 1.008000047877431, 0.0, 0.0, 0.0, 0.0, 0.0, 1.709014495489227E9, 0.0, 2024-02-26 22:14:55.489
70.0, -621.9079636316746, 1556.5108325085603, 398.99683662271127, 8653.416046524886, -0.06400000303983688, -0.03200000151991844, 1.008000047877431, 0.0, 0.0, 0.0, 0.0, 0.0, 1.70901449550046E9, 0.0, 2024-02-26 22:14:55.500
70.0, -830.6056008590385, 1667.3091085958295, 321.6052168896422, 8892.025403597858, -0.06400000303983688, -0.03200000151991844, 1.008000047877431, 0.0, 0.0, 0.0, 0.0, 0.0, 1.70901449550046E9, 0.0, 2024-02-26 22:14:55.500
71.0, -707.2711801202968, 1441.396711872425, 410.6167057850398, 8683.533460868057, -0.06400000303983688, -0.04800000227987766, 1.008000047877431, 0.0, 0.0, 0.0, 0.0, 0.0, 1.70901449551562E9, 0.0, 2024-02-26 22:14:55.515
71.0, -667.0635156966746, 1366.645461508073, 236.73005734523758, 8867.774022335187, -0.06400000303983688, -0.04800000227987766, 1.008000047877431, 0.0, 0.0, 0.0, 0.0, 0.0, 1.70901449551562E9, 0.0, 2024-02-26 22:14:55.515
72.0, -708.0266399113461, 1554.066807887517, 288.2284797350876, 8816.71503819013, -0.04800000227987766, -0.04800000227987766, 1.008000047877431, 0.0, 0.0, 0.0, 0.0, 0.0, 1.709014495518869E9, 0.0, 2024-02-26 22:14:55.518
72.0, -684.2109569935128, 1346.0610521519557, 85.98964973120019, 8997.548550797626, -0.04800000227987766, -0.04800000227987766, 1.008000047877431, 0.0, 0.0, 0.0, 0.0, 0.0, 1.709014495518869E9, 0.0, 2024-02-26 22:14:55.518
73.0, -591.2894026944414, 1263.790732926689, 181.54222364909947, 8779.16083278507, -0.04800000227987766, -0.04800000227987766, 1.008000047877431, 0.0, 0.0, 0.0, 0.0, 0.0, 1.70901449556287E9, 0.0, 2024-02-26 22:14:55.562
73.0, -751.6413531946018, 1489.0336875580251, 142.5631163609214, 8549.798378352541, -0.04800000227987766, -0.04800000227987766, 1.008000047877431, 0.0, 0.0, 0.0, 0.0, 0.0, 1.70901449556287E9, 0.0, 2024-02-26 22:14:55.562
74.0, -609.0408378341235, 1528.858012236189, 229.91969952592626, 8758.219262983184, -0.04800000227987766, -0.04800000227987766, 1.008000047877431, 0.0, 0.0, 0.0, 0.0, 0.0, 1.709014495565739E9, 0.0, 2024-02-26 22:14:55.565
74.0, -813.2300256649032, 1385.0663387398235, 255.4576063733548, 8902.790705620311, -0.04800000227987766, -0.04800000227987766, 1.008000047877431, 0.0, 0.0, 0.0, 0.0, 0.0, 1.709014495565739E9, 0.0, 2024-02-26 22:14:55.565
75.0, -613.7119728787802, 1574.604468494188, 416.7146126627922, 8660.091767945793, -0.04800000227987766, -0.04800000227987766, 1.008000047877431, 0.0, 0.0, 0.0, 0.0, 0.0, 1.709014495568786E9, 0.0, 2024-02-26 22:14:55.568
75.0, -839.0559048089199, 1657.5778889111243, 310.2864096737467, 8890.566842615139, -0.04800000227987766, -0.04800000227987766, 1.008000047877431, 0.0, 0.0, 0.0, 0.0, 0.0, 1.709014495568786E9, 0.0, 2024-02-26 22:14:55.568
76.0, -704.8121958994307, 1439.1939107985236, 401.39598244428635, 8674.561440874357, -0.04800000227987766, -0.04800000227987766, 1.008000047877431, 0.0, 0.0, 0.0, 0.0, 0.0, 1.709014495572812E9, 0.0, 2024-02-26 22:14:55.572
76.0, -657.1546507640742, 1383.841521504335, 244.19676760677248, 8864.363233575597, -0.04800000227987766, -0.04800000227987766, 1.008000047877431, 0.0, 0.0, 0.0, 0.0, 0.0, 1.709014495572812E9, 0.0, 2024-02-26 22:14:55.572
77.0, -705.8294486873783, 1549.6686855396256, 280.10728698130697, 8816.74121748982, -0.04800000227987766, -0.04800000227987766, 1.008000047877431, 0.0, 0.0, 0.0, 0.0, 0.0, 1.709014495576518E9, 0.0, 2024-02-26 22:14:55.576
77.0, -678.9881867053919, 1335.3686781786382, 79.42425535898656, 8989.698500790633, -0.04800000227987766, -0.04800000227987766, 1.008000047877431, 0.0, 0.0, 0.0, 0.0, 0.0, 1.709014495576518E9, 0.0, 2024-02-26 22:14:55.576
78.0, -584.8810841203667, 1270.9002827424556, 190.80408588936552, 8781.950798152015, -0.04800000227987766, -0.04800000227987766, 1.008000047877431, 0.0, 0.0, 0.0, 0.0, 0.0, 1.709014495579482E9, 0.0, 2024-02-26 22:14:55.579
78.0, -757.6607221732847, 1485.9146109949797, 137.42262387182564, 8545.75554650044, -0.04800000227987766, -0.04800000227987766, 1.008000047877431, 0.0, 0.0, 0.0, 0.0, 0.0, 1.709014495579482E9, 0.0, 2024-02-26 22:14:55.579
79.0, -606.8922653095797, 1531.5470003043301, 217.27322782576084, 8753.364872840699, -0.04800000227987766, -0.04800000227987766, 1.008000047877431, 0.0, 0.0, 0.0, 0.0, 0.0, 1.709014495590299E9, 0.0, 2024-02-26 22:14:55.590
79.0, -807.4986289828084, 1399.3377969707362, 266.3014462948777, 8906.33239087835, -0.04800000227987766, -0.04800000227987766, 1.008000047877431, 0.0, 0.0, 0.0, 0.0, 0.0, 1.709014495590299E9, 0.0, 2024-02-26 22:14:55.590
80.0, -618.792626968585, 1571.3395358328708, 405.4780832459219, 9150.966726779938, -0.04800000227987766, -0.04800000227987766, 1.008000047877431, 0.0, 0.0, 0.0, 0.0, 0.0, 1.709014495605775E9, 0.0, 2024-02-26 22:14:55.605
80.0, -840.8940656371415, 1653.5911555583589, 300.37754474114627, 9376.796845704317, -0.04800000227987766, -0.04800000227987766, 1.008000047877431, 0.0, 0.0, 0.0, 0.0, 0.0, 1.709014495605775E9, 0.0, 2024-02-26 22:14:55.605
81.0, -704.5747122522444, 1448.4576429887675, 406.7945280303247, 9168.985564766452, -0.04800000227987766, -0.03200000151991844, 1.008000047877431, 0.0, 0.0, 0.0, 0.0, 0.0, 1.709014495608736E9, 0.0, 2024-02-26 22:14:55.608
81.0, -674.8686869041994, 1387.5290628606454, 243.44691766565666, 9356.233005797956, -0.04800000227987766, -0.03200000151991844, 1.008000047877431, 0.0, 0.0, 0.0, 0.0, 0.0, 1.709014495608736E9, 0.0, 2024-02-26 22:14:55.608
82.0, -723.1732347318903, 1548.7561499504372, 267.8572446764447, 9303.55090507213, -0.04800000227987766, -0.03200000151991844, 1.008000047877431, 0.0, 0.0, 0.0, 0.0, 0.0, 1.709014495619909E9, 0.0, 2024-02-26 22:14:55.619
82.0, -664.3969670282677, 1331.4679625248536, 88.14383210567757, 9486.781693551224, -0.04800000227987766, -0.03200000151991844, 1.008000047877431, 0.0, 0.0, 0.0, 0.0, 0.0, 1.709014495619909E9, 0.0, 2024-02-26 22:14:55.619
83.0, -588.929525822401, 1284.1357886856422, 185.17366650607437, 9266.722240258474, -0.04800000227987766, -0.03200000151991844, 1.008000047877431, 0.0, 0.0, 0.0, 0.0, 0.0, 1.709014495683694E9, 0.0, 2024-02-26 22:14:55.683
83.0, -769.7836078796536, 1480.8021677555516, 132.98149267444387, 9031.23008979857, -0.04800000227987766, -0.03200000151991844, 1.008000047877431, 0.0, 0.0, 0.0, 0.0, 0.0, 1.709014495683694E9, 0.0, 2024-02-26 22:14:55.683
84.0, -604.0218920935877, 1533.5553265805356, 225.25978418113664, 9249.479431512766, -0.04800000227987766, -0.03200000151991844, 1.008000047877431, 0.0, 0.0, 0.0, 0.0, 0.0, 1.709014495686825E9, 0.0, 2024-02-26 22:14:55.686
84.0, -806.6104027433321, 1404.091209814418, 258.0904959421605, 9392.068727173377, -0.04800000227987766, -0.03200000151991844, 1.008000047877431, 0.0, 0.0, 0.0, 0.0, 0.0, 1.709014495686825E9, 0.0, 2024-02-26 22:14:55.686
85.0, -626.7829232239164, 1571.0777428359725, 405.4911728957668, 9151.868042669259, -0.04800000227987766, -0.03200000151991844, 1.008000047877431, 0.0, 0.0, 0.0, 0.0, 0.0, 1.70901449569003E9, 0.0, 2024-02-26 22:14:55.690
85.0, -829.4929806222208, 1667.193171697203, 308.6520733931102, 9384.579577512108, -0.04800000227987766, -0.03200000151991844, 1.008000047877431, 0.0, 0.0, 0.0, 0.0, 0.0, 1.70901449569003E9, 0.0, 2024-02-26 22:14:55.690
86.0, -704.591541802045, 1450.0358807700686, 405.80532449204475, 9165.384041109122, -0.04800000227987766, -0.03200000151991844, 1.008000047877431, 0.0, 0.0, 0.0, 0.0, 0.0, 1.709014495692865E9, 0.0, 2024-02-26 22:14:55.692
86.0, -674.6349431569688, 1392.7985818982124, 231.97851445153356, 9355.212013110053, -0.04800000227987766, -0.03200000151991844, 1.008000047877431, 0.0, 0.0, 0.0, 0.0, 0.0, 1.709014495692865E9, 0.0, 2024-02-26 22:14:55.692
87.0, -714.3863397859968, 1567.0966193331406, 282.2502496559173, 9307.500239425339, -0.04800000227987766, -0.03200000151991844, 1.008000047877431, 0.0, 0.0, 0.0, 0.0, 0.0, 1.709014495697642E9, 0.0, 2024-02-26 22:14:55.697
87.0, -665.7040620627813, 1335.7127489745617, 85.39313568826765, 9475.24410218792, -0.04800000227987766, -0.03200000151991844, 1.008000047877431, 0.0, 0.0, 0.0, 0.0, 0.0, 1.709014495697642E9, 0.0, 2024-02-26 22:14:55.697
88.0, -595.2593064974062, 1294.0240841684863, 180.8110732077621, 9264.175368388649, -0.04800000227987766, -0.03200000151991844, 1.008000047877431, 0.0, 0.0, 0.0, 0.0, 0.0, 1.709014495700605E9, 0.0, 2024-02-26 22:14:55.700
88.0, -758.876189658884, 1493.0428603105247, 140.46316253580153, 9040.086172893643, -0.04800000227987766, -0.03200000151991844, 1.008000047877431, 0.0, 0.0, 0.0, 0.0, 0.0, 1.709014495700605E9, 0.0, 2024-02-26 22:14:55.700
89.0, -603.4104184508324, 1532.126684797462, 222.6661635618657, 9248.514537324198, -0.04800000227987766, -0.03200000151991844, 1.008000047877431, 0.0, 0.0, 0.0, 0.0, 0.0, 1.709014495703744E9, 0.0, 2024-02-26 22:14:55.703
89.0, -811.8069937317632, 1407.0045918799005, 247.48974951775745, 9385.262109254021, -0.04800000227987766, -0.03200000151991844, 1.008000047877431, 0.0, 0.0, 0.0, 0.0, 0.0, 1.709014495703744E9, 0.0, 2024-02-26 22:14:55.703
90.0, -617.1059320885688, 1589.982937111985, 414.135951643344, 9160.047203872353, -0.04800000227987766, -0.03200000151991844, 1.008000047877431, 0.0, 0.0, 0.0, 0.0, 0.0, 1.70901449570673E9, 0.0, 2024-02-26 22:14:55.706
90.0, -833.5900410236791, 1652.659920469392, 295.8073869952932, 9377.989873790182, -0.04800000227987766, -0.03200000151991844, 1.008000047877431, 0.0, 0.0, 0.0, 0.0, 0.0, 1.70901449570673E9, 0.0, 2024-02-26 22:14:55.706
91.0, -703.7444544620812, 1440.8207672792487, 394.3182217781432, 9156.886988409795, -0.04800000227987766, -0.03200000151991844, 1.008000047877431, 0.0, 0.0, 0.0, 0.0, 0.0, 1.709014495710298E9, 0.0, 2024-02-26 22:14:55.710
91.0, -671.4204991450533, 1412.9042840600014, 235.05084226513281, 9360.006564853247, -0.04800000227987766, -0.03200000151991844, 1.008000047877431, 0.0, 0.0, 0.0, 0.0, 0.0, 1.709014495710298E9, 0.0, 2024-02-26 22:14:55.710
92.0, -709.9152893889695, 1559.108193027787, 277.76049975911155, 9306.976653431542, -0.06400000303983688, -0.03200000151991844, 1.008000047877431, 0.0, 0.0, 0.0, 0.0, 0.0, 1.709014495725687E9, 0.0, 2024-02-26 22:14:55.725
92.0, -667.8114956878126, 1336.0493399705738, 76.60624074237421, 9472.211043323856, -0.06400000303983688, -0.03200000151991844, 1.008000047877431, 0.0, 0.0, 0.0, 0.0, 0.0, 1.709014495725687E9, 0.0, 2024-02-26 22:14:55.725
93.0, -583.5216304864734, 1290.3515024119988, 196.30734867416322, 9268.906341832597, -0.06400000303983688, -0.03200000151991844, 1.008000047877431, 0.0, 0.0, 0.0, 0.0, 0.0, 1.709014495788758E9, 0.0, 2024-02-26 22:14:55.788
93.0, -763.4743966544047, 1497.1604901617393, 137.9406000156887, 9038.82208670862, -0.06400000303983688, -0.03200000151991844, 1.008000047877431, 0.0, 0.0, 0.0, 0.0, 0.0, 1.709014495788758E9, 0.0, 2024-02-26 22:14:55.788
94.0, -609.1642545326613, 1513.7562962151133, 223.7563443989493, 9243.02062428929, -0.06400000303983688, -0.03200000151991844, 1.008000047877431, 0.0, 0.0, 0.0, 0.0, 0.0, 1.709014495791448E9, 0.0, 2024-02-26 22:14:55.791
94.0, -806.0344581501558, 1409.2522717532702, 265.69371255207807, 9383.092967279721, -0.06400000303983688, -0.03200000151991844, 1.008000047877431, 0.0, 0.0, 0.0, 0.0, 0.0, 1.709014495791448E9, 0.0, 2024-02-26 22:14:55.791
95.0, -625.5001375391148, 1581.3923869137652, 414.14156149327755, 9153.263025352731, -0.06400000303983688, -0.03200000151991844, 1.008000047877431, 0.0, 0.0, 0.0, 0.0, 0.0, 1.709014495794377E9, 0.0, 2024-02-26 22:14:55.794
95.0, -840.4471475924365, 1634.581244083587, 303.81638275040314, 9375.229827622883, -0.06400000303983688, -0.03200000151991844, 1.008000047877431, 0.0, 0.0, 0.0, 0.0, 0.0, 1.709014495794377E9, 0.0, 2024-02-26 22:14:55.794
96.0, -699.2921035648324, 1448.4165040892549, 405.199460699223, 9168.821009168401, -0.06400000303983688, -0.03200000151991844, 1.008000047877431, 0.0, 0.0, 0.0, 0.0, 0.0, 1.709014495817752E9, 0.0, 2024-02-26 22:14:55.817
96.0, -672.6415764805861, 1396.8414137503132, 239.3348976643756, 9360.64608774567, -0.06400000303983688, -0.03200000151991844, 1.008000047877431, 0.0, 0.0, 0.0, 0.0, 0.0, 1.709014495817752E9, 0.0, 2024-02-26 22:14:55.817
97.0, -724.6785444640554, 1545.6183738876134, 275.00606344174594, 9304.414821961895, -0.06400000303983688, -0.03200000151991844, 1.008000047877431, 0.0, 0.0, 0.0, 0.0, 0.0, 1.709014495820924E9, 0.0, 2024-02-26 22:14:55.820
97.0, -661.6088716113009, 1332.4440764132887, 87.62585596181452, 9481.246641616803, -0.06400000303983688, -0.03200000151991844, 1.008000047877431, 0.0, 0.0, 0.0, 0.0, 0.0, 1.709014495820924E9, 0.0, 2024-02-26 22:14:55.820
98.0, -587.1250240937807, 1288.541390833445, 185.60562495095655, 9272.777138286736, -0.06400000303983688, -0.03200000151991844, 1.008000047877431, 0.0, 0.0, 0.0, 0.0, 0.0, 1.709014495823726E9, 0.0, 2024-02-26 22:14:55.823
98.0, -768.7570053418167, 1486.1726640919223, 136.96635607723147, 9036.836199832149, -0.06400000303983688, -0.03200000151991844, 1.008000047877431, 0.0, 0.0, 0.0, 0.0, 0.0, 1.709014495823726E9, 0.0, 2024-02-26 22:14:55.823
99.0, -593.7764361649752, 1514.9194051013328, 229.67473607882857, 9243.794783580117, -0.06400000303983688, -0.03200000151991844, 1.008000047877431, 0.0, 0.0, 0.0, 0.0, 0.0, 1.709014495826751E9, 0.0, 2024-02-26 22:14:55.826
99.0, -803.837266926188, 1396.3346573063172, 262.34463214175776, 9393.822740252595, -0.06400000303983688, -0.03200000151991844, 1.008000047877431, 0.0, 0.0, 0.0, 0.0, 0.0, 1.709014495826751E9, 0.0, 2024-02-26 22:14:55.826
100.0, -636.280399161391, 1575.0233372892253, 404.5431082569994, 9158.521324690431, -0.06400000303983688, -0.03200000151991844, 1.008000047877431, 0.0, 0.0, 0.0, 0.0, 0.0, 1.709014495832238E9, 0.0, 2024-02-26 22:14:55.832
100.0, -825.0929883243516, 1643.1979735814966, 317.8877563336864, 9389.056237759069, -0.06400000303983688, -0.03200000151991844, 1.008000047877431, 0.0, 0.0, 0.0, 0.0, 0.0, 1.709014495832238E9, 0.0, 2024-02-26 22:14:55.832
0.0, 276.45901457453147, -1012.8752350495197, -91.5434011653997, -158.67460537003353, -0.06400000303983688, -0.03200000151991844, 1.008000047877431, 0.0, 0.0, 0.0, 0.0, 0.0, 1.709014495835258E9, 0.0, 2024-02-26 22:14:55.835
1.0, 307.2832700093277, -1061.3723877249286, -249.66637129196897, 37.88144665118307, -0.06400000303983688, -0.03200000151991844, 1.008000047877431, 0.0, 0.0, 0.0, 0.0, 0.0, 1.709014495838178E9, 0.0, 2024-02-26 22:14:55.838
1.0, 269.5252400566824, -901.057836224325, -208.1572216837667, -2.9489111150614917, -0.06400000303983688, -0.03200000151991844, 1.008000047877431, 0.0, 0.0, 0.0, 0.0, 0.0, 1.709014495838178E9, 0.0, 2024-02-26 22:14:55.838
3.0, 92.8411464500241, -690.4790293192491, -247.39064216893166, -224.9998611342162, -0.06400000303983688, -0.03200000151991844, 1.008000047877431, 0.0, 0.0, 0.0, 0.0, 0.0, 1.70901449584119E9, 0.0, 2024-02-26 22:14:55.841
3.0, 277.163985716179, -673.8832232658751, -171.39587506931275, -24.675859907642007, -0.06400000303983688, -0.03200000151991844, 1.008000047877431, 0.0, 0.0, 0.0, 0.0, 0.0, 1.70901449584119E9, 0.0, 2024-02-26 22:14:55.841
4.0, 59.967425839509815, -792.946678255219, -143.40085395099595, 115.28428608411923, -0.06400000303983688, -0.03200000151991844, 1.008000047877431, 0.0, 0.0, 0.0, 0.0, 0.0, 1.709014495844909E9, 0.0, 2024-02-26 22:14:55.844
4.0, 235.34816431161016, -594.369210307952, 26.30832623830065, -101.66544039547443, -0.06400000303983688, -0.03200000151991844, 1.008000047877431, 0.0, 0.0, 0.0, 0.0, 0.0, 1.709014495844909E9, 0.0, 2024-02-26 22:14:55.844
5.0, 35.581408178433776, -537.9229002767242, -84.14400910306722, 104.66858005989343, -0.06400000303983688, -0.03200000151991844, 1.008000047877431, 0.0, 0.0, 0.0, 0.0, 0.0, 1.709014495893154E9, 0.0, 2024-02-26 22:14:55.893
5.0, 166.84815672319382, -752.338844536338, 5.03577529033646, -112.64204676542431, -0.06400000303983688, -0.03200000151991844, 1.008000047877431, 0.0, 0.0, 0.0, 0.0, 0.0, 1.709014495893154E9, 0.0, 2024-02-26 22:14:55.893
6.0, 201.51702931243926, -783.9092100122944, -149.28371658129618, 93.18147734599188, -0.06400000303983688, -0.03200000151991844, 1.008000047877431, 0.0, 0.0, 0.0, 0.0, 0.0, 1.709014495896154E9, 0.0, 2024-02-26 22:14:55.896
6.0, 148.34313174244016, -638.4158820360899, -113.95288169989362, 37.57103495486081, -0.06400000303983688, -0.03200000151991844, 1.008000047877431, 0.0, 0.0, 0.0, 0.0, 0.0, 1.709014495896154E9, 0.0, 2024-02-26 22:14:55.896
7.0, 203.14762569312006, -868.1167974146083, -316.30390870245174, 195.21716783707961, -0.06400000303983688, -0.03200000151991844, 1.008000047877431, 0.0, 0.0, 0.0, 0.0, 0.0, 1.709014495899149E9, 0.0, 2024-02-26 22:14:55.899
7.0, 279.3929660897702, -886.5208450965583, -197.5714348591864, 1.1088803368620574, -0.06400000303983688, -0.03200000151991844, 1.008000047877431, 0.0, 0.0, 0.0, 0.0, 0.0, 1.709014495899149E9, 0.0, 2024-02-26 22:14:55.899
8.0, 98.35562893468887, -690.9726961134002, -249.11286609852687, -228.09275839757174, -0.06400000303983688, -0.03200000151991844, 1.008000047877431, 0.0, 0.0, 0.0, 0.0, 0.0, 1.70901449590225E9, 0.0, 2024-02-26 22:14:55.902
8.0, 264.97004191065207, -680.8618765831925, -175.20122327422723, -34.392119992524385, -0.06400000303983688, -0.03200000151991844, 1.008000047877431, 0.0, 0.0, 0.0, 0.0, 0.0, 1.70901449590225E9, 0.0, 2024-02-26 22:14:55.902
9.0, 63.97098874207586, -787.4789445200004, -133.64906481653452, 119.42061543511227, -0.06400000303983688, -0.03200000151991844, 1.008000047877431, 0.0, 0.0, 0.0, 0.0, 0.0, 1.709014495906394E9, 0.0, 2024-02-26 22:14:55.906
9.0, 228.6817926405929, -596.4859936828725, 22.387041134759784, -110.18867239449173, -0.06400000303983688, -0.03200000151991844, 1.008000047877431, 0.0, 0.0, 0.0, 0.0, 0.0, 1.709014495906394E9, 0.0, 2024-02-26 22:14:55.906
10.0, 22.011181189212948, -551.2855628184043, -89.44531729025766, 104.27589056454599, -0.06400000303983688, -0.03200000151991844, 1.008000047877431, 0.0, 0.0, 0.0, 0.0, 0.0, 1.709014495909242E9, 0.0, 2024-02-26 22:14:55.909
10.0, 175.3582990723662, -746.98330779979, 8.138022303581238, -108.13172741886228, -0.06400000303983688, -0.03200000151991844, 1.008000047877431, 0.0, 0.0, 0.0, 0.0, 0.0, 1.709014495909242E9, 0.0, 2024-02-26 22:14:55.909
11.0, 193.5940512563102, -782.9106567241251, -151.0022006109357, 91.16193136991933, -0.06400000303983688, -0.03200000151991844, 1.008000047877431, 0.0, 0.0, 0.0, 0.0, 0.0, 1.709014495921189E9, 0.0, 2024-02-26 22:14:55.921
11.0, 135.31893014675006, -635.6446161689237, -115.11412063613534, 30.98133123293519, -0.06400000303983688, -0.03200000151991844, 1.008000047877431, 0.0, 0.0, 0.0, 0.0, 0.0, 1.709014495921189E9, 0.0, 2024-02-26 22:14:55.921
12.0, 211.51939174393192, -869.8857700936496, -311.0437394147739, 201.83305085869506, -0.06400000303983688, -0.03200000151991844, 1.008000047877431, 0.0, 0.0, 0.0, 0.0, 0.0, 1.709014495935894E9, 0.0, 2024-02-26 22:14:55.935
12.0, 279.7426467356272, -891.565970136784, -203.98349333321676, -0.5030165440402925, -0.06400000303983688, -0.03200000151991844, 1.008000047877431, 0.0, 0.0, 0.0, 0.0, 0.0, 1.709014495935894E9, 0.0, 2024-02-26 22:14:55.935
13.0, 86.51323572499678, -697.3641851376742, -258.39342783857137, -229.39050368219614, -0.06400000303983688, -0.03200000151991844, 1.008000047877431, 0.0, 0.0, 0.0, 0.0, 0.0, 1.709014495938592E9, 0.0, 2024-02-26 22:14:55.938
13.0, 275.982177330181, -672.4171824832447, -167.45776041597128, -31.265563629567623, -0.06400000303983688, -0.03200000151991844, 1.008000047877431, 0.0, 0.0, 0.0, 0.0, 0.0, 1.709014495938592E9, 0.0, 2024-02-26 22:14:55.938
14.0, 63.972858692053705, -791.1178671768866, -136.44837993336841, 114.79435918992385, -0.06400000303983688, -0.03200000151991844, 1.008000047877431, 0.0, 0.0, 0.0, 0.0, 0.0, 1.709014495951157E9, 0.0, 2024-02-26 22:14:55.951
14.0, 216.764601431787, -598.2325269621797, 21.625971493776888, -111.33682168088853, -0.06400000303983688, -0.03200000151991844, 1.008000047877431, 0.0, 0.0, 0.0, 0.0, 0.0, 1.709014495951157E9, 0.0, 2024-02-26 22:14:55.951
15.0, 43.09112728945911, -546.5358898746781, -78.3322045719251, 117.98636380210519, -0.06400000303983688, -0.03200000151991844, 1.008000047877431, 0.0, 0.0, 0.0, 0.0, 0.0, 1.709014495966201E9, 0.0, 2024-02-26 22:14:55.966
15.0, 169.50722559168935, -748.8831769772805, 8.091273554135114, -109.99419759679586, -0.06400000303983688, -0.03200000151991844, 1.008000047877431, 0.0, 0.0, 0.0, 0.0, 0.0, 1.709014495966201E9, 0.0, 2024-02-26 22:14:55.966
16.0, 186.43401279114187, -788.0193600635976, -150.73479776410386, 92.80748735042289, -0.06400000303983688, -0.03200000151991844, 1.008000047877431, 0.0, 0.0, 0.0, 0.0, 0.0, 1.709014495998392E9, 0.0, 2024-02-26 22:14:55.998
16.0, 149.82787202484906, -635.0088331764564, -106.91065008332953, 42.62363979499787, -0.06400000303983688, -0.03200000151991844, 1.008000047877431, 0.0, 0.0, 0.0, 0.0, 0.0, 1.709014495998392E9, 0.0, 2024-02-26 22:14:55.998
17.0, 212.11216588690877, -868.2065550135449, -316.99579019425437, 196.90386271709576, -0.06400000303983688, -0.03200000151991844, 1.008000047877431, 0.0, 0.0, 0.0, 0.0, 0.0, 1.70901449600138E9, 0.0, 2024-02-26 22:14:56.001
17.0, 270.70891839265823, -890.7506719464436, -208.9145514247939, -3.943724503275007, -0.06400000303983688, -0.03200000151991844, 1.008000047877431, 0.0, 0.0, 0.0, 0.0, 0.0, 1.70901449600138E9, 0.0, 2024-02-26 22:14:56.001
18.0, 101.51210449729115, -682.3223075158894, -243.01682917075232, -214.60293925739825, -0.06400000303983688, -0.03200000151991844, 1.008000047877431, 0.0, 0.0, 0.0, 0.0, 0.0, 1.709014496004297E9, 0.0, 2024-02-26 22:14:56.004
18.0, 268.09285837365314, -683.8818457974121, -170.03268153546378, -29.070242355577648, -0.06400000303983688, -0.03200000151991844, 1.008000047877431, 0.0, 0.0, 0.0, 0.0, 0.0, 1.709014496004297E9, 0.0, 2024-02-26 22:14:56.004
19.0, 68.56732578761876, -797.0661780564114, -145.31381277833134, 109.59963815147057, -0.06400000303983688, -0.03200000151991844, 1.008000047877431, 0.0, 0.0, 0.0, 0.0, 0.0, 1.709014496027646E9, 0.0, 2024-02-26 22:14:56.027
19.0, 222.58201581286266, -585.6197143616155, 27.218991877511144, -98.44912643358111, -0.06400000303983688, -0.03200000151991844, 1.008000047877431, 0.0, 0.0, 0.0, 0.0, 0.0, 1.709014496027646E9, 0.0, 2024-02-26 22:14:56.027
20.0, 36.35369751928374, -554.0362592358142, -80.37231999775395, 105.65591364819556, -0.06400000303983688, -0.03200000151991844, 1.008000047877431, 0.0, 0.0, 0.0, 0.0, 0.0, 1.709014496030783E9, 0.0, 2024-02-26 22:14:56.030
20.0, 174.8010539789684, -744.2475709822029, 3.455667559057474, -121.08300096541643, -0.06400000303983688, -0.03200000151991844, 1.008000047877431, 0.0, 0.0, 0.0, 0.0, 0.0, 1.709014496030783E9, 0.0, 2024-02-26 22:14:56.030
21.0, 210.69661375368014, -768.7607452417724, -146.09171196911484, 94.28100793296471, -0.06400000303983688, -0.03200000151991844, 1.008000047877431, 0.0, 0.0, 0.0, 0.0, 0.0, 1.709014496033891E9, 0.0, 2024-02-26 22:14:56.033
21.0, 140.33787588728592, -652.4760359195061, -113.10205445997417, 34.867087286897004, -0.06400000303983688, -0.03200000151991844, 1.008000047877431, 0.0, 0.0, 0.0, 0.0, 0.0, 1.709014496033891E9, 0.0, 2024-02-26 22:14:56.033
22.0, 205.43083461606875, -880.5650544171222, -321.53415879048407, 190.6283105914481, -0.04800000227987766, -0.03200000151991844, 1.008000047877431, 0.0, 0.0, 0.0, 0.0, 0.0, 1.709014496036748E9, 0.0, 2024-02-26 22:14:56.036
22.0, 279.2340203416534, -880.9689636123367, -202.42395505169407, 1.250996535178274, -0.04800000227987766, -0.03200000151991844, 1.008000047877431, 0.0, 0.0, 0.0, 0.0, 0.0, 1.709014496036748E9, 0.0, 2024-02-26 22:14:56.036
23.0, 88.18871090514585, -688.4837926928885, -246.68006117735058, -218.5148746110499, -0.04800000227987766, -0.03200000151991844, 1.008000047877431, 0.0, 0.0, 0.0, 0.0, 0.0, 1.709014496040467E9, 0.0, 2024-02-26 22:14:56.040
23.0, 276.03827582951635, -695.8214764059521, -178.17631368897855, -35.244817182421684, -0.04800000227987766, -0.03200000151991844, 1.008000047877431, 0.0, 0.0, 0.0, 0.0, 0.0, 1.709014496040467E9, 0.0, 2024-02-26 22:14:56.040
24.0, 78.91749891499057, -784.3561280569993, -136.77001132955775, 114.78313949005678, -0.04800000227987766, -0.03200000151991844, 1.008000047877431, 0.0, 0.0, 0.0, 0.0, 0.0, 1.709014496043565E9, 0.0, 2024-02-26 22:14:56.043
24.0, 224.65205043833703, -596.1157435872592, 28.185756016056985, -100.54347040876746, -0.04800000227987766, -0.03200000151991844, 1.008000047877431, 0.0, 0.0, 0.0, 0.0, 0.0, 1.709014496043565E9, 0.0, 2024-02-26 22:14:56.043
25.0, 29.39935355167836, -567.015582032036, -86.01021918095648, 102.92952658049762, -0.04800000227987766, -0.03200000151991844, 1.008000047877431, 0.0, 0.0, 0.0, 0.0, 0.0, 1.709014496054922E9, 0.0, 2024-02-26 22:14:56.054
25.0, 180.77928405813873, -745.4125498184003, 12.070527106989175, -112.4213926680386, -0.04800000227987766, -0.03200000151991844, 1.008000047877431, 0.0, 0.0, 0.0, 0.0, 0.0, 1.709014496054922E9, 0.0, 2024-02-26 22:14:56.054
26.0, 195.80246218014508, -787.6603296678513, -147.76531719928607, 90.84777977364138, -0.04800000227987766, -0.03200000151991844, 1.008000047877431, 0.0, 0.0, 0.0, 0.0, 0.0, 1.709014496071189E9, 0.0, 2024-02-26 22:14:56.071
26.0, 144.85754498373717, -649.1306954091415, -115.16834918549284, 33.13551360741258, -0.04800000227987766, -0.03200000151991844, 1.008000047877431, 0.0, 0.0, 0.0, 0.0, 0.0, 1.709014496071189E9, 0.0, 2024-02-26 22:14:56.071
27.0, 223.54130015149713, -881.0942502608523, -306.2323581217788, 193.33973805932328, -0.04800000227987766, -0.03200000151991844, 1.008000047877431, 0.0, 0.0, 0.0, 0.0, 0.0, 1.709014496074211E9, 0.0, 2024-02-26 22:14:56.074
27.0, 280.2419233797118, -879.4524341803044, -201.4983298126608, -3.091027313377708, -0.04800000227987766, -0.03200000151991844, 1.008000047877431, 0.0, 0.0, 0.0, 0.0, 0.0, 1.709014496074211E9, 0.0, 2024-02-26 22:14:56.074
28.0, 75.00743351131678, -698.5422536237165, -251.04639437561855, -222.72974186111242, -0.04800000227987766, -0.03200000151991844, 1.008000047877431, 0.0, 0.0, 0.0, 0.0, 0.0, 1.709014496116946E9, 0.0, 2024-02-26 22:14:56.116
28.0, 273.0818849145435, -688.8951816880144, -171.2518889210187, -26.358814887702465, -0.04800000227987766, -0.03200000151991844, 1.008000047877431, 0.0, 0.0, 0.0, 0.0, 0.0, 1.709014496116946E9, 0.0, 2024-02-26 22:14:56.116
29.0, 73.48529422935098, -786.7421842287295, -136.78310097940266, 108.5898651634343, -0.04800000227987766, -0.03200000151991844, 1.008000047877431, 0.0, 0.0, 0.0, 0.0, 0.0, 1.709014496119734E9, 0.0, 2024-02-26 22:14:56.119
29.0, 211.66898774215952, -593.2173211215995, 24.219592113047838, -102.3423622874543, -0.04800000227987766, -0.03200000151991844, 1.008000047877431, 0.0, 0.0, 0.0, 0.0, 0.0, 1.709014496119734E9, 0.0, 2024-02-26 22:14:56.119
30.0, 43.56796453380957, -555.3545739701949, -77.70951122930273, 109.79972279909998, -0.04800000227987766, -0.03200000151991844, 1.008000047877431, 0.0, 0.0, 0.0, 0.0, 0.0, 1.70901449612274E9, 0.0, 2024-02-26 22:14:56.122
30.0, 180.12293161591515, -745.1208376218565, 7.135729115456343, -114.55313564278185, -0.04800000227987766, -0.03200000151991844, 1.008000047877431, 0.0, 0.0, 0.0, 0.0, 0.0, 1.70901449612274E9, 0.0, 2024-02-26 22:14:56.122
31.0, 188.93413591152057, -778.3741580778733, -154.53640606906265, 94.44930343097076, -0.04800000227987766, -0.03200000151991844, 1.008000047877431, 0.0, 0.0, 0.0, 0.0, 0.0, 1.709014496131335E9, 0.0, 2024-02-26 22:14:56.131
31.0, 140.457552685868, -634.9265553774312, -106.38893403951079, 46.883385844528675, -0.04800000227987766, -0.03200000151991844, 1.008000047877431, 0.0, 0.0, 0.0, 0.0, 0.0, 1.709014496131335E9, 0.0, 2024-02-26 22:14:56.131
32.0, 219.24976495234296, -876.5614915145561, -319.7801457112655, 195.27700623637065, -0.06400000303983688, -0.03200000151991844, 1.008000047877431, 0.0, 0.0, 0.0, 0.0, 0.0, 1.709014496134257E9, 0.0, 2024-02-26 22:14:56.134
32.0, 273.57929160865024, -879.011125985533, -212.4169677332975, -2.664678718429059, -0.06400000303983688, -0.03200000151991844, 1.008000047877431, 0.0, 0.0, 0.0, 0.0, 0.0, 1.709014496134257E9, 0.0, 2024-02-26 22:14:56.134
33.0, 90.85525957355276, -677.4005991742015, -243.49366641510278, -220.13051139190793, -0.06400000303983688, -0.03200000151991844, 1.008000047877431, 0.0, 0.0, 0.0, 0.0, 0.0, 1.709014496137285E9, 0.0, 2024-02-26 22:14:56.137
33.0, 277.08170791715384, -684.341853491962, -183.10176193062216, -40.069288125261664, -0.06400000303983688, -0.03200000151991844, 1.008000047877431, 0.0, 0.0, 0.0, 0.0, 0.0, 1.709014496137285E9, 0.0, 2024-02-26 22:14:56.137
34.0, 74.4595381678082, -786.6916955793276, -145.30446302844211, 105.85225839586928, -0.06400000303983688, -0.03200000151991844, 1.008000047877431, 0.0, 0.0, 0.0, 0.0, 0.0, 1.709014496144889E9, 0.0, 2024-02-26 22:14:56.144
34.0, 223.72081534937024, -587.9122730344534, 27.254520927090198, -97.5253711445257, -0.06400000303983688, -0.03200000151991844, 1.008000047877431, 0.0, 0.0, 0.0, 0.0, 0.0, 1.709014496144889E9, 0.0, 2024-02-26 22:14:56.144
35.0, 41.10898031294346, -563.7076405212283, -85.5614311862737, 109.35467470437288, -0.06400000303983688, -0.03200000151991844, 1.008000047877431, 0.0, 0.0, 0.0, 0.0, 0.0, 1.709014496160731E9, 0.0, 2024-02-26 22:14:56.160
35.0, 173.02647144999355, -753.1073939772323, -2.900292415637523, -127.51936878915876, -0.06400000303983688, -0.03200000151991844, 1.008000047877431, 0.0, 0.0, 0.0, 0.0, 0.0, 1.709014496160731E9, 0.0, 2024-02-26 22:14:56.160
36.0, 196.8758134674281, -769.3329499349929, -142.58555576065555, 94.61011912906542, -0.06400000303983688, -0.03200000151991844, 1.008000047877431, 0.0, 0.0, 0.0, 0.0, 0.0, 1.70901449616383E9, 0.0, 2024-02-26 22:14:56.163
36.0, 136.85415907856077, -634.4123191335239, -109.11719105718657, 42.14867250062525, -0.06400000303983688, -0.03200000151991844, 1.008000047877431, 0.0, 0.0, 0.0, 0.0, 0.0, 1.70901449616383E9, 0.0, 2024-02-26 22:14:56.163
37.0, 220.07441289257258, -877.4048389545642, -324.8495801012032, 187.00808743434027, -0.06400000303983688, -0.03200000151991844, 1.008000047877431, 0.0, 0.0, 0.0, 0.0, 0.0, 1.709014496175267E9, 0.0, 2024-02-26 22:14:56.175
37.0, 278.6524658985436, -875.9687173715793, -197.2759827626869, -1.890519427601248, -0.06400000303983688, -0.03200000151991844, 1.008000047877431, 0.0, 0.0, 0.0, 0.0, 0.0, 1.709014496175267E9, 0.0, 2024-02-26 22:14:56.175
38.0, 75.78159280214459, -693.6373748318292, -245.46272374177352, -222.63624436222017, -0.06400000303983688, -0.03200000151991844, 1.008000047877431, 0.0, 0.0, 0.0, 0.0, 0.0, 1.70901449623759E9, 0.0, 2024-02-26 22:14:56.237
38.0, 269.0016540628858, -704.3035695054568, -180.9905884056352, -42.840553992427886, -0.06400000303983688, -0.03200000151991844, 1.008000047877431, 0.0, 0.0, 0.0, 0.0, 0.0, 1.70901449623759E9, 0.0, 2024-02-26 22:14:56.237
39.0, 74.13229692168534, -789.29279599851, -140.22380893863738, 104.38995751319453, -0.06400000303983688, -0.03200000151991844, 1.008000047877431, 0.0, 0.0, 0.0, 0.0, 0.0, 1.709014496240633E9, 0.0, 2024-02-26 22:14:56.240
39.0, 212.51046523218974, -580.0453934776597, 24.410327010788023, -101.59438229631633, -0.06400000303983688, -0.03200000151991844, 1.008000047877431, 0.0, 0.0, 0.0, 0.0, 0.0, 1.709014496240633E9, 0.0, 2024-02-26 22:14:56.240
40.0, 32.65867636306211, -561.5254088970833, -92.07820685906336, 100.29663701169193, -0.06400000303983688, -0.03200000151991844, 1.008000047877431, 0.0, 0.0, 0.0, 0.0, 0.0, 1.709014496243621E9, 0.0, 2024-02-26 22:14:56.243
40.0, 188.35071151843295, -748.7784597785212, 8.900961894541979, -121.90203905571252, -0.06400000303983688, -0.03200000151991844, 1.008000047877431, 0.0, 0.0, 0.0, 0.0, 0.0, 1.709014496243621E9, 0.0, 2024-02-26 22:14:56.243
41.0, 187.6120812771842, -772.9251238424331, -144.09086549282074, 97.4748824951239, -0.06400000303983688, -0.03200000151991844, 1.008000047877431, 0.0, 0.0, 0.0, 0.0, 0.0, 1.709014496246725E9, 0.0, 2024-02-26 22:14:56.246
41.0, 131.5098420418799, -639.8781829187647, -115.71624452900141, 37.32046165782958, -0.06400000303983688, -0.03200000151991844, 1.008000047877431, 0.0, 0.0, 0.0, 0.0, 0.0, 1.709014496246725E9, 0.0, 2024-02-26 22:14:56.246
42.0, 235.87923010531813, -875.9406681219116, -316.4778140503913, 191.14067688537762, -0.06400000303983688, -0.03200000151991844, 1.008000047877431, 0.0, 0.0, 0.0, 0.0, 0.0, 1.709014496253203E9, 0.0, 2024-02-26 22:14:56.253
42.0, 275.2117579393089, -871.7220609718934, -205.1129431198351, -5.507002684753388, -0.06400000303983688, -0.03200000151991844, 1.008000047877431, 0.0, 0.0, 0.0, 0.0, 0.0, 1.709014496253203E9, 0.0, 2024-02-26 22:14:56.253
43.0, 73.27585983183235, -696.0926191527396, -251.51201192010194, -218.59341251011938, -0.06400000303983688, -0.03200000151991844, 1.008000047877431, 0.0, 0.0, 0.0, 0.0, 0.0, 1.709014496256766E9, 0.0, 2024-02-26 22:14:56.256
43.0, 292.58920308342203, -690.4995987690054, -174.14470153674483, -29.541469749994576, -0.06400000303983688, -0.03200000151991844, 1.008000047877431, 0.0, 0.0, 0.0, 0.0, 0.0, 1.709014496256766E9, 0.0, 2024-02-26 22:14:56.256
44.0, 82.34511722438037, -789.9285789909773, -140.65950728347525, 107.4379759770818, -0.06400000303983688, -0.03200000151991844, 1.008000047877431, 0.0, 0.0, 0.0, 0.0, 0.0, 1.709014496259439E9, 0.0, 2024-02-26 22:14:56.259
44.0, 196.86272381758317, -582.8540583443828, 22.104678688105196, -101.45974589791149, -0.06400000303983688, -0.03200000151991844, 1.008000047877431, 0.0, 0.0, 0.0, 0.0, 0.0, 1.709014496259439E9, 0.0, 2024-02-26 22:14:56.259
45.0, 41.481100358534604, -581.0028078663163, -87.25186596624553, 105.17346655391157, -0.06400000303983688, -0.03200000151991844, 1.008000047877431, 0.0, 0.0, 0.0, 0.0, 0.0, 1.709014496266122E9, 0.0, 2024-02-26 22:14:56.266
45.0, 187.49801432853565, -748.539106181357, 4.295275099109858, -123.62987283524126, -0.06400000303983688, -0.03200000151991844, 1.008000047877431, 0.0, 0.0, 0.0, 0.0, 0.0, 1.709014496266122E9, 0.0, 2024-02-26 22:14:56.266
46.0, 185.02407050784677, -765.0675940355286, -154.85242761531845, 89.11620609415695, -0.06400000303983688, -0.03200000151991844, 1.008000047877431, 0.0, 0.0, 0.0, 0.0, 0.0, 1.70901449626898E9, 0.0, 2024-02-26 22:14:56.268
46.0, 145.74016137328, -645.7984445486218, -103.79905332019553, 45.20043086446822, -0.06400000303983688, -0.03200000151991844, 1.008000047877431, 0.0, 0.0, 0.0, 0.0, 0.0, 1.70901449626898E9, 0.0, 2024-02-26 22:14:56.268
47.0, 225.38133092969656, -402.497382981237, -320.77682904945686, 185.87115784781054, -0.06400000303983688, -0.03200000151991844, 1.008000047877431, 0.0, 0.0, 0.0, 0.0, 0.0, 1.709014496280924E9, 0.0, 2024-02-26 22:14:56.280
47.0, 277.3883797135204, -385.3125426848419, -210.24221590906382, -5.058214690070599, -0.06400000303983688, -0.03200000151991844, 1.008000047877431, 0.0, 0.0, 0.0, 0.0, 0.0, 1.709014496280924E9, 0.0, 2024-02-26 22:14:56.280
48.0, 74.15847622137517, -197.58452450903133, -241.54704848816618, -212.4337972830981, -0.06400000303983688, -0.03200000151991844, 1.008000047877431, 0.0, 0.0, 0.0, 0.0, 0.0, 1.709014496284069E9, 0.0, 2024-02-26 22:14:56.284
48.0, 282.2184605062939, -217.80242366949096, -174.3934048837982, -41.93923810310662, -0.06400000303983688, -0.03200000151991844, 1.008000047877431, 0.0, 0.0, 0.0, 0.0, 0.0, 1.709014496284069E9, 0.0, 2024-02-26 22:14:56.284
49.0, 73.06642543431371, -306.33707532053813, -148.06263924576342, 95.0626470237039, -0.06400000303983688, -0.03200000151991844, 1.008000047877431, 0.0, 0.0, 0.0, 0.0, 0.0, 1.70901449629492E9, 0.0, 2024-02-26 22:14:56.294
49.0, 212.820876928512, -81.97299717878923, 37.88144665118307, -91.87064241152257, -0.06400000303983688, -0.03200000151991844, 1.008000047877431, 0.0, 0.0, 0.0, 0.0, 0.0, 1.70901449629492E9, 0.0, 2024-02-26 22:14:56.294
50.0, 41.484840258490294, -87.37341271480545, -85.75403603399172, 104.384347663261, -0.06400000303983688, -0.03200000151991844, 1.008000047877431, 0.0, 0.0, 0.0, 0.0, 0.0, 1.709014496357713E9, 0.0, 2024-02-26 22:14:56.357
50.0, 178.54095393465832, -278.10083065507933, -5.325617536902428, -128.78345497418195, -0.06400000303983688, -0.03200000151991844, 1.008000047877431, 0.0, 0.0, 0.0, 0.0, 0.0, 1.709014496357713E9, 0.0, 2024-02-26 22:14:56.357
51.0, 190.32163879508153, -271.2493339362554, -135.44421679526567, 100.71363585675135, -0.06400000303983688, -0.03200000151991844, 1.008000047877431, 0.0, 0.0, 0.0, 0.0, 0.0, 1.709014496360607E9, 0.0, 2024-02-26 22:14:56.360
51.0, 134.61208905512467, -164.41161190206185, -106.71430533565581, 46.40093875024468, -0.06400000303983688, -0.03200000151991844, 1.008000047877431, 0.0, 0.0, 0.0, 0.0, 0.0, 1.709014496360607E9, 0.0, 2024-02-26 22:14:56.360
52.0, 226.10126167116687, 67.37429770175368, -325.2628390463069, 185.3662713537924, -0.06400000303983688, -0.03200000151991844, 1.008000047877431, 0.0, 0.0, 0.0, 0.0, 0.0, 1.709014496363837E9, 0.0, 2024-02-26 22:14:56.363
52.0, 280.62152322521433, 103.79718337021768, -193.3696572589688, 2.380446321796626, -0.06400000303983688, -0.03200000151991844, 1.008000047877431, 0.0, 0.0, 0.0, 0.0, 0.0, 1.709014496363837E9, 0.0, 2024-02-26 22:14:56.363
53.0, 75.32345505757257, 289.5168752698228, -242.8242243230343, -211.22954949736595, -0.06400000303983688, -0.03200000151991844, 1.008000047877431, 0.0, 0.0, 0.0, 0.0, 0.0, 1.709014496368143E9, 0.0, 2024-02-26 22:14:56.368
53.0, 277.11910691671073, 253.58391649555415, -178.44184658583254, -39.695298129692674, -0.06400000303983688, -0.03200000151991844, 1.008000047877431, 0.0, 0.0, 0.0, 0.0, 0.0, 1.709014496368143E9, 0.0, 2024-02-26 22:14:56.368
54.0, 81.53542888397351, 195.99693697784096, -131.4892725921236, 109.27052695536986, -0.06400000303983688, -0.03200000151991844, 1.008000047877431, 0.0, 0.0, 0.0, 0.0, 0.0, 1.709014496372332E9, 0.0, 2024-02-26 22:14:56.372
54.0, 205.78051526192576, 397.046478795819, 36.89598301285878, -94.50727188028395, -0.06400000303983688, -0.03200000151991844, 1.008000047877431, 0.0, 0.0, 0.0, 0.0, 0.0, 1.709014496372332E9, 0.0, 2024-02-26 22:14:56.372
55.0, 31.893866822123528, 387.2853399114683, -89.37238924112171, 99.80671011749655, -0.06400000303983688, -0.03200000151991844, 1.008000047877431, 0.0, 0.0, 0.0, 0.0, 0.0, 1.709014496375309E9, 0.0, 2024-02-26 22:14:56.375
55.0, 197.4629777604714, 208.34982653148472, 9.912604832556099, -125.08469391800463, -0.06400000303983688, -0.03200000151991844, 1.008000047877431, 0.0, 0.0, 0.0, 0.0, 0.0, 1.709014496375309E9, 0.0, 2024-02-26 22:14:56.375
56.0, 187.180122832302, 222.74096156097949, -142.8323891577311, 94.87565202591941, -0.06400000303983688, -0.03200000151991844, 1.008000047877431, 0.0, 0.0, 0.0, 0.0, 0.0, 1.709014496378286E9, 0.0, 2024-02-26 22:14:56.378
56.0, 120.21721412567422, 317.5287259379402, -108.75068086152896, 43.693251182325184, -0.06400000303983688, -0.03200000151991844, 1.008000047877431, 0.0, 0.0, 0.0, 0.0, 0.0, 1.709014496378286E9, 0.0, 2024-02-26 22:14:56.378
57.0, 228.47235824307427, 76.67542889155447, -323.0282488227822, 185.7365214494057, -0.06400000303983688, -0.03200000151991844, 1.008000047877431, 0.0, 0.0, 0.0, 0.0, 0.0, 1.709014496381191E9, 0.0, 2024-02-26 22:14:56.381
57.0, 285.03086527297273, 105.99250464420766, -198.74202354531735, -2.088734125252813, -0.06400000303983688, -0.03200000151991844, 1.008000047877431, 0.0, 0.0, 0.0, 0.0, 0.0, 1.709014496381191E9, 0.0, 2024-02-26 22:14:56.381
58.0, 61.8635551170446, 285.3955055186525, -245.30190804367885, -211.2482489971444, -0.06400000303983688, -0.03200000151991844, 1.008000047877431, 0.0, 0.0, 0.0, 0.0, 0.0, 1.709014496385052E9, 0.0, 2024-02-26 22:14:56.385
58.0, 295.6615308970213, 269.18677911069244, -171.98116941237822, -32.26411691773683, -0.06400000303983688, -0.03200000151991844, 1.008000047877431, 0.0, 0.0, 0.0, 0.0, 0.0, 1.709014496385052E9, 0.0, 2024-02-26 22:14:56.385
59.0, 85.29776823939756, 191.7259712284431, -145.0669793812558, 101.03900715289637, -0.06400000303983688, -0.03200000151991844, 1.008000047877431, 0.0, 0.0, 0.0, 0.0, 0.0, 1.709014496400716E9, 0.0, 2024-02-26 22:14:56.400
59.0, 192.2420774223283, 403.80447801575065, 34.814728687517345, -96.4894188567996, -0.06400000303983688, -0.03200000151991844, 1.008000047877431, 0.0, 0.0, 0.0, 0.0, 0.0, 1.709014496400716E9, 0.0, 2024-02-26 22:14:56.400
60.0, 49.12358591798693, 398.2357669817284, -78.37521342141554, 110.89551348611712, -0.06400000303983688, -0.03200000151991844, 1.008000047877431, 0.0, 0.0, 0.0, 0.0, 0.0, 1.709014496403577E9, 0.0, 2024-02-26 22:14:56.403
60.0, 194.69545179326087, 215.07790655177087, 3.4369680592790246, -129.99518255982548, -0.06400000303983688, -0.03200000151991844, 1.008000047877431, 0.0, 0.0, 0.0, 0.0, 0.0, 1.709014496403577E9, 0.0, 2024-02-26 22:14:56.403
61.0, 173.74640219146386, 230.97622126340866, -144.00110789388418, 104.66671010991558, -0.06400000303983688, -0.03200000151991844, 1.008000047877431, 0.0, 0.0, 0.0, 0.0, 0.0, 1.709014496447734E9, 0.0, 2024-02-26 22:14:56.447
61.0, 137.9331202157773, 320.38600950408727, -104.69101945962757, 55.24580214545131, -0.06400000303983688, -0.03200000151991844, 1.008000047877431, 0.0, 0.0, 0.0, 0.0, 0.0, 1.709014496447734E9, 0.0, 2024-02-26 22:14:56.447
62.0, 235.15181956393644, 86.9676335696131, -320.0344589082524, 181.76100779650733, -0.06400000303983688, -0.03200000151991844, 1.008000047877431, 0.0, 0.0, 0.0, 0.0, 0.0, 1.709014496450865E9, 0.0, 2024-02-26 22:14:56.450
62.0, 273.8934432049282, 108.85352811031044, -204.79879152355716, -6.714990370441228, -0.06400000303983688, -0.03200000151991844, 1.008000047877431, 0.0, 0.0, 0.0, 0.0, 0.0, 1.709014496450865E9, 0.0, 2024-02-26 22:14:56.450
63.0, 66.60200836090371, 299.9848552457988, -234.20375492516905, -200.00610973034054, -0.06400000303983688, -0.03200000151991844, 1.008000047877431, 0.0, 0.0, 0.0, 0.0, 0.0, 1.709014496453881E9, 0.0, 2024-02-26 22:14:56.453
63.0, 281.83138086088, 247.88056906312704, -180.99993815552443, -40.71255091764033, -0.06400000303983688, -0.03200000151991844, 1.008000047877431, 0.0, 0.0, 0.0, 0.0, 0.0, 1.709014496453881E9, 0.0, 2024-02-26 22:14:56.453
64.0, 90.81412067404017, 206.27418205607682, -147.24547110544518, 89.73702948680148, -0.06400000303983688, -0.03200000151991844, 1.008000047877431, 0.0, 0.0, 0.0, 0.0, 0.0, 1.709014496456887E9, 0.0, 2024-02-26 22:14:56.456
64.0, 193.7978758038953, 408.5728504592553, 42.57689104555175, -85.63996908534318, -0.06400000303983688, -0.03200000151991844, 1.008000047877431, 0.0, 0.0, 0.0, 0.0, 0.0, 1.709014496456887E9, 0.0, 2024-02-26 22:14:56.456
65.0, 48.068934130482376, 402.3384372331202, -89.81369743589312, 110.25225069373846, -0.06400000303983688, -0.03200000151991844, 1.008000047877431, 0.0, 0.0, 0.0, 0.0, 0.0, 1.709014496460707E9, 0.0, 2024-02-26 22:14:56.460
65.0, 189.19031905848533, 212.34029978420585, -7.014182366896421, 354.39104985119775, -0.06400000303983688, -0.03200000151991844, 1.008000047877431, 0.0, 0.0, 0.0, 0.0, 0.0, 1.709014496460707E9, 0.0, 2024-02-26 22:14:56.460
66.0, 194.52341639529914, 242.80552482325584, -140.70812598289922, 590.2871095063165, -0.06400000303983688, -0.03200000151991844, 1.008000047877431, 0.0, 0.0, 0.0, 0.0, 0.0, 1.709014496463695E9, 0.0, 2024-02-26 22:14:56.463
66.0, 126.8761059967801, 321.0816308958456, -107.82318567251787, 542.919406617526, -0.06400000303983688, -0.03200000151991844, 1.008000047877431, 0.0, 0.0, 0.0, 0.0, 0.0, 1.709014496463695E9, 0.0, 2024-02-26 22:14:56.463
67.0, 232.9247091403231, 557.2768825474195, -323.0245089228265, 671.2933425465599, -0.06400000303983688, -0.03200000151991844, 1.008000047877431, 0.0, 0.0, 0.0, 0.0, 0.0, 1.709014496475025E9, 0.0, 2024-02-26 22:14:56.475
67.0, 281.96975715924054, 609.010918634478, -196.86459376756102, 485.2034005513415, -0.06400000303983688, -0.03200000151991844, 1.008000047877431, 0.0, 0.0, 0.0, 0.0, 0.0, 1.709014496475025E9, 0.0, 2024-02-26 22:14:56.475
68.0, 61.386717872694135, 790.0482557895593, -240.36898000212386, 284.91492837434635, -0.06400000303983688, -0.03200000151991844, 1.008000047877431, 0.0, 0.0, 0.0, 0.0, 0.0, 1.709014496490873E9, 0.0, 2024-02-26 22:14:56.490
68.0, 285.35623656911775, 742.4393293536268, -183.31306627811864, 448.0044856420718, -0.06400000303983688, -0.03200000151991844, 1.008000047877431, 0.0, 0.0, 0.0, 0.0, 0.0, 1.709014496490873E9, 0.0, 2024-02-26 22:14:56.490
69.0, 96.1565677607432, 693.8019304298796, -132.72156962752342, 587.6018613381311, -0.06400000303983688, -0.03200000151991844, 1.008000047877431, 0.0, 0.0, 0.0, 0.0, 0.0, 1.709014496493747E9, 0.0, 2024-02-26 22:14:56.493
69.0, 187.662569926586, 900.5585595802404, 35.01294338516891, 407.1797377257608, -0.06400000303983688, -0.03200000151991844, 1.008000047877431, 0.0, 0.0, 0.0, 0.0, 0.0, 1.709014496493747E9, 0.0, 2024-02-26 22:14:56.493
70.0, 31.865817572455853, 879.2934884321876, -99.98061546543613, 594.4103492074646, -0.06400000303983688, -0.03200000151991844, 1.008000047877431, 0.0, 0.0, 0.0, 0.0, 0.0, 1.709014496504886E9, 0.0, 2024-02-26 22:14:56.504
70.0, 202.28183885337785, 713.0100566023029, 6.189534426666796, 362.88062275061384, -0.06400000303983688, -0.03200000151991844, 1.008000047877431, 0.0, 0.0, 0.0, 0.0, 0.0, 1.709014496504886E9, 0.0, 2024-02-26 22:14:56.504
