%OpenBCI Raw EXG Data
%Number of channels = 4
%Sample Rate = 200 Hz
%Board = OpenBCI_GUI$BoardGanglionBLE
Sample Index, EXG Channel 0, EXG Channel 1, EXG Channel 2, EXG Channel 3, Accel Channel 0, Accel Channel 1, Accel Channel 2, Other, Other, Other, Other, Other, Timestamp, Other, Timestamp (Formatted)
2.0, 68.50748738832772, 70.99078095890582, 122.15635225269943, 113.23295095842332, -0.04800000227987766, 0.0, 0.0, 0.0, 0.0, 0.0, 0.0, 0.0, 1.707426899489252E9, 0.0, 2024-02-08 13:14:59.489
2.0, -35.573928378522396, -51.356306191533804, -60.82947277929634, -48.77951512206346, -0.04800000227987766, 0.0, 0.0, 0.0, 0.0, 0.0, 0.0, 0.0, 1.707426899489252E9, 0.0, 2024-02-08 13:14:59.489
3.0, 40.491896820254624, 36.389226568862796, 72.75227383803576, 71.94445544760674, -0.04800000227987766, 0.0, 0.0, 0.0, 0.0, 0.0, 0.0, 0.0, 1.707426899498604E9, 0.0, 2024-02-08 13:14:59.498
3.0, -101.00721800327301, -145.6242244746536, -117.36180050950497, -160.71846069581807, -0.04800000227987766, 0.0, 0.0, 0.0, 0.0, 0.0, 0.0, 0.0, 1.707426899498604E9, 0.0, 2024-02-08 13:14:59.498
4.0, -120.23030377551913, -167.90654841065407, -191.35946103278548, -188.2703036693856, -0.04800000227987766, 0.0, 0.0, 0.0, 0.0, 0.0, 0.0, 0.0, 1.707426899501857E9, 0.0, 2024-02-08 13:14:59.501
4.0, 0.9686340885236859, -16.201246608048677, -1.5819776812568307, 2.905902265571058, -0.04800000227987766, 0.0, 0.0, 0.0, 0.0, 0.0, 0.0, 0.0, 1.707426899501857E9, 0.0, 2024-02-08 13:14:59.501
5.0, 29.04406305588782, 5.950180829502642, 61.756967968307436, 43.86528658028692, -0.04800000227987766, 0.0, 0.0, 0.0, 0.0, 0.0, 0.0, 0.0, 1.707426899512523E9, 0.0, 2024-02-08 13:14:59.512
5.0, -179.70219287090003, 247.8001612140797, 216.80387038132176, 183.4738819762133, -0.04800000227987766, 0.0, 0.0, 0.0, 0.0, 0.0, 0.0, 0.0, 1.707426899512523E9, 0.0, 2024-02-08 13:14:59.512
6.0, 7.550858010537922, 480.96422395156696, -8.02208540495485, 1.5408387817442417, -0.04800000227987766, 0.0, 0.0, 0.0, 0.0, 0.0, 0.0, 0.0, 1.707426899528041E9, 0.0, 2024-02-08 13:14:59.528
6.0, 87.18080786708742, 561.9031387926079, 124.81916102115065, 115.91445922665298, -0.04800000227987766, 0.0, 0.0, 0.0, 0.0, 0.0, 0.0, 0.0, 1.707426899528041E9, 0.0, 2024-02-08 13:14:59.528
7.0, -152.65523639135063, 750.2725498108193, 251.22964947344735, 196.76174651877955, -0.04800000227987766, 0.0, 0.0, 0.0, 0.0, 0.0, 0.0, 0.0, 1.707426899531168E9, 0.0, 2024-02-08 13:14:59.531
7.0, 3.182654862292111, 946.7220146832988, 450.125008916948, -27.75005767121911, -0.04800000227987766, 0.0, 0.0, 0.0, 0.0, 0.0, 0.0, 0.0, 1.707426899531168E9, 0.0, 2024-02-08 13:14:59.531
8.0, 79.0353057635948, 1045.0552042182535, 590.558252253104, 95.06451697368175, -0.04800000227987766, 0.0, 0.0, 0.0, 0.0, 0.0, 0.0, 0.0, 1.707426899542453E9, 0.0, 2024-02-08 13:14:59.542
8.0, -60.79207377973944, 852.1848236033693, 395.2868558666669, -140.3210463374853, -0.04800000227987766, 0.0, 0.0, 0.0, 0.0, 0.0, 0.0, 0.0, 1.707426899542453E9, 0.0, 2024-02-08 13:14:59.542
9.0, -81.54851853381842, 835.1047005057335, 322.22791023226455, -168.58347030263394, -0.04800000227987766, 0.0, 0.0, 0.0, 0.0, 0.0, 0.0, 0.0, 1.707426899558555E9, 0.0, 2024-02-08 13:14:59.558
9.0, 37.51493645552546, 982.0191904651001, 508.3066325276159, 19.68309346679598, -0.04800000227987766, 0.0, 0.0, 0.0, 0.0, 0.0, 0.0, 0.0, 1.707426899558555E9, 0.0, 2024-02-08 13:14:59.558
10.0, 51.42362439073622, 993.7063778266311, 564.3378136637621, 53.379592067562044, -0.04800000227987766, 0.0, 1.0240000486373901, 0.0, 0.0, 0.0, 0.0, 0.0, 1.707426899561785E9, 0.0, 2024-02-08 13:14:59.561
10.0, -147.04164655786008, 1237.9835532824509, 727.6835540784523, 203.72918013622984, -0.04800000227987766, 0.0, 1.0240000486373901, 0.0, 0.0, 0.0, 0.0, 0.0, 1.707426899561785E9, 0.0, 2024-02-08 13:14:59.561
11.0, 40.93320501502603, 1470.220120830927, 495.8153666756116, 9.331050389446318, -0.04800000227987766, 0.0, 1.0240000486373901, 0.0, 0.0, 0.0, 0.0, 0.0, 1.707426899572531E9, 0.0, 2024-02-08 13:14:59.572
11.0, 115.40209293272346, 1548.746800200548, 631.5737350671552, 126.36747960280627, -0.04800000227987766, 0.0, 1.0240000486373901, 0.0, 0.0, 0.0, 0.0, 0.0, 1.707426899572531E9, 0.0, 2024-02-08 13:14:59.572
12.0, -123.22970353998244, 1744.7643066281453, 760.6133731883019, 206.706140500959, -0.04800000227987766, 0.0, 1.0240000486373901, 0.0, 0.0, 0.0, 0.0, 0.0, 1.707426899588435E9, 0.0, 2024-02-08 13:14:59.588
12.0, 40.028149225749075, 1952.22029707022, 970.7770511982962, -16.216206207871437, -0.04800000227987766, 0.0, 1.0240000486373901, 0.0, 0.0, 0.0, 0.0, 0.0, 1.707426899588435E9, 0.0, 2024-02-08 13:14:59.588
13.0, 122.73229684587568, 2047.3147332435474, 1103.9436689205468, 109.74362429976463, -0.04800000227987766, 0.0, 1.0240000486373901, 0.0, 0.0, 0.0, 0.0, 0.0, 1.707426899591268E9, 0.0, 2024-02-08 13:14:59.591
13.0, -21.35482874698937, 1859.126707373187, 919.933111300692, -124.48630992509425, -0.04800000227987766, 0.0, 1.0240000486373901, 0.0, 0.0, 0.0, 0.0, 0.0, 1.707426899591268E9, 0.0, 2024-02-08 13:14:59.591
14.0, -38.457391244359314, 1844.5784965455532, 845.1425919868052, -153.76224677823484, -0.04800000227987766, 0.0, 1.0240000486373901, 0.0, 0.0, 0.0, 0.0, 0.0, 1.707426899603289E9, 0.0, 2024-02-08 13:14:59.603
14.0, 76.88486328907311, 1983.541959199123, 1021.5536728966981, 28.393320463597775, -0.04800000227987766, 0.0, 1.0240000486373901, 0.0, 0.0, 0.0, 0.0, 0.0, 1.707426899603289E9, 0.0, 2024-02-08 13:14:59.603
15.0, 95.07947657350451, 1999.6160492086783, 1077.5437151333317, 59.96181598957628, -0.04800000227987766, 0.0, 1.0240000486373901, 0.0, 0.0, 0.0, 0.0, 0.0, 1.707426899618547E9, 0.0, 2024-02-08 13:14:59.618
15.0, -118.04620220139623, 2230.601620221976, 1229.2845459855162, 194.85813744133338, -0.04800000227987766, 0.0, 1.0240000486373901, 0.0, 0.0, 0.0, 0.0, 0.0, 1.707426899618547E9, 0.0, 2024-02-08 13:14:59.618
16.0, 59.011881400831044, 2446.9548326586373, 993.7288172263652, 1.2640861850231886, -0.04800000227987766, 0.0, 1.0240000486373901, 0.0, 0.0, 0.0, 0.0, 0.0, 1.70742689962168E9, 0.0, 2024-02-08 13:14:59.621
16.0, 126.13934570550919, 2520.5972026861273, 1110.163122546859, 111.84918797481805, -0.04800000227987766, 0.0, 1.0240000486373901, 0.0, 0.0, 0.0, 0.0, 0.0, 1.70742689962168E9, 0.0, 2024-02-08 13:14:59.621
17.0, -118.42393209692091, 2705.282812247984, 1228.416889195796, 185.23911475529894, -0.04800000227987766, 0.0, 1.0240000486373901, 0.0, 0.0, 0.0, 0.0, 0.0, 1.707426899632784E9, 0.0, 2024-02-08 13:14:59.632
17.0, 41.266056111082435, 2906.5791874630377, 1435.5811674413271, -35.30091568175703, -0.04800000227987766, 0.0, 1.0240000486373901, 0.0, 0.0, 0.0, 0.0, 0.0, 1.707426899632784E9, 0.0, 2024-02-08 13:14:59.632
18.0, 139.67404364515096, 3004.8487986987457, 1577.824522356037, 89.3761291410774, -0.04800000227987766, 0.0, 1.0240000486373901, 0.0, 0.0, 0.0, 0.0, 0.0, 1.707426899648216E9, 0.0, 2024-02-08 13:14:59.648
18.0, -13.927387434989214, 2829.062281081453, 1400.643022055272, -139.63290474563837, -0.04800000227987766, 0.0, 1.0240000486373901, 0.0, 0.0, 0.0, 0.0, 0.0, 1.707426899648216E9, 0.0, 2024-02-08 13:14:59.648
19.0, -53.5067486660555, 2821.9976100651547, 1337.7753038001247, -161.5187992863357, -0.04800000227987766, 0.0, 1.0240000486373901, 0.0, 0.0, 0.0, 0.0, 0.0, 1.707426899651158E9, 0.0, 2024-02-08 13:14:59.651
19.0, 48.3943054266274, 2972.59216158092, 1527.6425447505899, 29.85188144631684, -0.04800000227987766, 0.0, 1.0240000486373901, 0.0, 0.0, 0.0, 0.0, 0.0, 1.707426899651158E9, 0.0, 2024-02-08 13:14:59.651
20.0, 74.28189291991293, 3009.871484339237, 1604.3516327417456, 85.2622391898185, -0.04800000227987766, 0.0, 1.0240000486373901, 0.0, 0.0, 0.0, 0.0, 0.0, 1.707426899662288E9, 0.0, 2024-02-08 13:14:59.662
20.0, -146.41334336530417, 3245.7825035941787, 1758.0297317709774, 224.7548976871185, -0.04800000227987766, 0.0, 1.0240000486373901, 0.0, 0.0, 0.0, 0.0, 0.0, 1.707426899662288E9, 0.0, 2024-02-08 13:14:59.662
21.0, 65.98679481819272, 3486.1009949469008, 1542.8227986707352, 41.76720270514488, -0.04800000227987766, 0.0, 1.0240000486373901, 0.0, 0.0, 0.0, 0.0, 0.0, 1.707426899678005E9, 0.0, 2024-02-08 13:14:59.678
21.0, 134.52794130612165, 3583.3496134947054, 1686.8613055641763, 165.86456303484738, -0.04800000227987766, 0.0, 1.0240000486373901, 0.0, 0.0, 0.0, 0.0, 0.0, 1.707426899678005E9, 0.0, 2024-02-08 13:14:59.678
22.0, -100.05354351457208, 3789.4910291023552, 1828.7175808334723, 258.4850553874858, -0.04800000227987766, 0.0, 1.0240000486373901, 0.0, 0.0, 0.0, 0.0, 0.0, 1.707426899681124E9, 0.0, 2024-02-08 13:14:59.681
22.0, 77.19153508543968, 4013.2604631511495, 2054.2260683616623, 44.19439777638763, -0.04800000227987766, 0.0, 1.0240000486373901, 0.0, 0.0, 0.0, 0.0, 0.0, 1.707426899681124E9, 0.0, 2024-02-08 13:14:59.681
23.0, 183.89088082127273, 4116.859431823716, 2198.3019742546603, 178.59144258406013, -0.04800000227987766, 0.0, 1.0240000486373901, 0.0, 0.0, 0.0, 0.0, 0.0, 1.707426899708989E9, 0.0, 2024-02-08 13:14:59.708
23.0, 53.85455936193466, 3947.352206232026, 2022.220004540868, -54.176190758123994, -0.04800000227987766, 0.0, 1.0240000486373901, 0.0, 0.0, 0.0, 0.0, 0.0, 1.707426899708989E9, 0.0, 2024-02-08 13:14:59.708
24.0, 39.0557752372697, 3939.3189011272043, 1962.617218947038, -78.05545197520405, -0.04800000227987766, 0.0, 1.0240000486373901, 0.0, 0.0, 0.0, 0.0, 0.0, 1.707426899712111E9, 0.0, 2024-02-08 13:14:59.712
24.0, 147.68116945028305, 4073.641147935763, 2138.631870461628, 106.17949964199215, -0.04800000227987766, 0.0, 1.0240000486373901, 0.0, 0.0, 0.0, 0.0, 0.0, 1.707426899712111E9, 0.0, 2024-02-08 13:14:59.712
25.0, 159.7834857068956, 4076.5171310016885, 2186.8391808904707, 129.9503037603572, -0.04800000227987766, 0.0, 1.0240000486373901, 0.0, 0.0, 0.0, 0.0, 0.0, 1.707426899715282E9, 0.0, 2024-02-08 13:14:59.715
25.0, -68.40651008952409, 4299.439477710519, 2320.7294692541473, 265.56468600360677, -0.04800000227987766, 0.0, 1.0240000486373901, 0.0, 0.0, 0.0, 0.0, 0.0, 1.707426899715282E9, 0.0, 2024-02-08 13:14:59.715
26.0, 88.23545965459198, 4509.846249217633, 2564.462489266414, 61.368018372915685, -0.04800000227987766, 0.0, 1.0240000486373901, 0.0, 0.0, 0.0, 0.0, 0.0, 1.707426899722652E9, 0.0, 2024-02-08 13:14:59.722
26.0, 135.33575969655067, 4559.3026862316765, 2672.130469090771, 158.4483414227143, -0.04800000227987766, 0.0, 1.0240000486373901, 0.0, 0.0, 0.0, 0.0, 0.0, 1.707426899722652E9, 0.0, 2024-02-08 13:14:59.722
27.0, 363.35559004498646, 4721.331981861964, 2770.398210376501, 221.22443212894723, -0.04800000227987766, 0.0, 1.0240000486373901, 0.0, 0.0, 0.0, 0.0, 0.0, 1.707426899738317E9, 0.0, 2024-02-08 13:14:59.738
27.0, 509.8960900087841, 4915.361731463112, 2968.8485217252746, -13.875028835609555, -0.04800000227987766, 0.0, 1.0240000486373901, 0.0, 0.0, 0.0, 0.0, 0.0, 1.707426899738317E9, 0.0, 2024-02-08 13:14:59.738
28.0, 569.861645898316, 4995.866817909293, 3087.0218805251643, 108.13172741886228, -0.04800000227987766, 0.0, 1.0240000486373901, 0.0, 0.0, 0.0, 0.0, 0.0, 1.707426899741091E9, 0.0, 2024-02-08 13:14:59.741
28.0, 436.0068865842186, 4814.556468057446, 2906.9569173585624, -124.81542112119496, -0.04800000227987766, 0.0, 1.0240000486373901, 0.0, 0.0, 0.0, 0.0, 0.0, 1.707426899741091E9, 0.0, 2024-02-08 13:14:59.741
29.0, 422.0346203497611, 4796.60868817009, 2841.6844434319064, -156.43253534659743, -0.04800000227987766, 0.0, 1.0240000486373901, 0.0, 0.0, 0.0, 0.0, 0.0, 1.707426899752341E9, 0.0, 2024-02-08 13:14:59.752
29.0, 533.9399068239145, 4941.137121957727, 3022.0710379946977, 32.9784378092736, -0.04800000227987766, 0.0, 1.0240000486373901, 0.0, 0.0, 0.0, 0.0, 0.0, 1.707426899752341E9, 0.0, 2024-02-08 13:14:59.752
30.0, 563.5673942728899, 4969.12653322611, 3085.2678674459457, 73.19358203280717, -0.04800000227987766, 0.0, 1.0240000486373901, 0.0, 0.0, 0.0, 0.0, 0.0, 1.707426899768202E9, 0.0, 2024-02-08 13:14:59.768
30.0, 362.80582475150004, 5203.97168099368, 3236.784304300789, 216.7926506814547, -0.04800000227987766, 0.0, 1.0240000486373901, 0.0, 0.0, 0.0, 0.0, 0.0, 1.707426899768202E9, 0.0, 2024-02-08 13:14:59.768
31.0, 543.9665786051191, 5439.058052308392, 3009.6022115424275, 24.58236240874976, -0.04800000227987766, 0.0, 1.0240000486373901, 0.0, 0.0, 0.0, 0.0, 0.0, 1.707426899771383E9, 0.0, 2024-02-08 13:14:59.771
31.0, 612.0028385990299, 5515.221114906017, 3131.395793499425, 134.78973430301994, -0.04800000227987766, 0.0, 1.0240000486373901, 0.0, 0.0, 0.0, 0.0, 0.0, 1.707426899771383E9, 0.0, 2024-02-08 13:14:59.771
32.0, 854.2567281788215, 5689.999729485251, 3251.437232327182, 212.7872178289108, -0.04800000227987766, 0.0, 1.0240000486373901, 0.0, 0.0, 0.0, 0.0, 0.0, 1.707426899782506E9, 0.0, 2024-02-08 13:14:59.782
32.0, 997.7155505791306, 5884.646562579088, 3438.275154313538, -27.3087494764477, -0.04800000227987766, 0.0, 1.0240000486373901, 0.0, 0.0, 0.0, 0.0, 0.0, 1.707426899782506E9, 0.0, 2024-02-08 13:14:59.782
33.0, 1065.8266085721552, 5961.41922886949, 3556.927220307756, 89.0806770445779, -0.04800000227987766, 0.0, 1.0240000486373901, 0.0, 0.0, 0.0, 0.0, 0.0, 1.707426899798294E9, 0.0, 2024-02-08 13:14:59.798
33.0, 903.9263394903392, 5751.779136853293, 3349.512368765194, -155.9987069517374, -0.04800000227987766, 0.0, 1.0240000486373901, 0.0, 0.0, 0.0, 0.0, 0.0, 1.707426899798294E9, 0.0, 2024-02-08 13:14:59.798
34.0, 868.7413607072085, 5716.553019170649, 3262.589613995049, -200.55213512387127, -0.04800000227987766, 0.0, 1.0240000486373901, 0.0, 0.0, 0.0, 0.0, 0.0, 1.707426899801251E9, 0.0, 2024-02-08 13:14:59.801
34.0, 984.0275167413056, 5862.031387547031, 3442.1796098672785, -4.633736045099795, -0.04800000227987766, 0.0, 1.0240000486373901, 0.0, 0.0, 0.0, 0.0, 0.0, 1.707426899801251E9, 0.0, 2024-02-08 13:14:59.801
35.0, 1006.6015528738499, 5881.935135111213, 3508.9929225756787, 37.53363595530391, -0.04800000227987766, 0.0, 1.0240000486373901, 0.0, 0.0, 0.0, 0.0, 0.0, 1.707426899812489E9, 0.0, 2024-02-08 13:14:59.812
35.0, 795.0989906797186, 6113.855681113433, 3657.322964668274, 174.3934048837982, -0.04800000227987766, 0.0, 1.0240000486373901, 0.0, 0.0, 0.0, 0.0, 0.0, 1.707426899812489E9, 0.0, 2024-02-08 13:14:59.812
36.0, 970.9229072965682, 6346.1371274613775, 3424.1345925810747, -16.276044607162476, -0.04800000227987766, 0.0, 1.0240000486373901, 0.0, 0.0, 0.0, 0.0, 0.0, 1.7074268998285E9, 0.0, 2024-02-08 13:14:59.828
36.0, 1027.2645001290366, 6407.583683733363, 3535.8192249578424, 83.99815300479531, -0.04800000227987766, 0.0, 1.0240000486373901, 0.0, 0.0, 0.0, 0.0, 0.0, 1.7074268998285E9, 0.0, 2024-02-08 13:14:59.828
37.0, 1262.5696555911563, 6569.878512260504, 3641.8285591518506, 149.17899938253686, -0.04800000227987766, 0.0, 1.0240000486373901, 0.0, 0.0, 0.0, 0.0, 0.0, 1.707426899831973E9, 0.0, 2024-02-08 13:14:59.831
37.0, 1401.753772342112, 6761.342690492049, 3830.775784713216, -87.38650236465037, -0.04800000227987766, 0.0, 1.0240000486373901, 0.0, 0.0, 0.0, 0.0, 0.0, 1.707426899831973E9, 0.0, 2024-02-08 13:14:59.831
38.0, 1472.3406441058032, 6843.115603023209, 3950.403964595869, 32.97469790931791, -0.04800000227987766, 0.0, 1.0240000486373901, 0.0, 0.0, 0.0, 0.0, 0.0, 1.707426899842837E9, 0.0, 2024-02-08 13:14:59.842
38.0, 1348.2919024755247, 6678.025199279189, 3778.3423873344436, -185.6411540005356, -0.04800000227987766, 0.0, 1.0240000486373901, 0.0, 0.0, 0.0, 0.0, 0.0, 1.707426899842837E9, 0.0, 2024-02-08 13:14:59.842
39.0, 1332.730178759899, 6668.997080786154, 3716.8584320629016, -216.77956103160977, -0.04800000227987766, 0.0, 1.0240000486373901, 0.0, 0.0, 0.0, 0.0, 0.0, 1.707426899858243E9, 0.0, 2024-02-08 13:14:59.858
39.0, 1448.113572192844, 6819.759927799925, 3900.184587990865, -22.54037703294307, -0.04800000227987766, 0.0, 1.0240000486373901, 0.0, 0.0, 0.0, 0.0, 0.0, 1.707426899858243E9, 0.0, 2024-02-08 13:14:59.858
40.0, 1474.1058768848889, 6838.070477982983, 3960.7223485736176, 18.50502498075366, -0.04800000227987766, 0.0, 1.0240000486373901, 0.0, 0.0, 0.0, 0.0, 0.0, 1.707426899861284E9, 0.0, 2024-02-08 13:14:59.861
40.0, 1269.121960313525, 7075.5372956194915, 4116.229258681182, 165.35032679094002, -0.04800000227987766, 0.0, 1.0240000486373901, 0.0, 0.0, 0.0, 0.0, 0.0, 1.707426899861284E9, 0.0, 2024-02-08 13:14:59.861
41.0, 1446.2548419148661, 7310.230977438856, 3886.425496053882, -26.433612886816263, -0.04800000227987766, 0.0, 1.0240000486373901, 0.0, 0.0, 0.0, 0.0, 0.0, 1.707426899872348E9, 0.0, 2024-02-08 13:14:59.872
41.0, 1508.789709073957, 7376.991931547876, 4002.4184931796044, 81.25680633727461, -0.04800000227987766, 0.0, 1.0240000486373901, 0.0, 0.0, 0.0, 0.0, 0.0, 1.707426899872348E9, 0.0, 2024-02-08 13:14:59.872
42.0, 1749.8617902677506, 7551.699488027953, 4123.364987796638, 155.11422061221674, -0.04800000227987766, 0.0, 1.0240000486373901, 0.0, 0.0, 0.0, 0.0, 0.0, 1.707426899888164E9, 0.0, 2024-02-08 13:14:59.888
42.0, 1901.7391274683177, 7754.417025226168, 4324.609004412312, -72.95422843564302, -0.04800000227987766, 0.0, 1.0240000486373901, 0.0, 0.0, 0.0, 0.0, 0.0, 1.707426899888164E9, 0.0, 2024-02-08 13:14:59.888
43.0, 1974.2221285095438, 7844.63089195732, 4450.176145424601, 53.18885716982186, -0.04800000227987766, 0.0, 1.0240000486373901, 0.0, 0.0, 0.0, 0.0, 0.0, 1.707426899891188E9, 0.0, 2024-02-08 13:14:59.891
43.0, 1839.0434446111321, 7657.830368970521, 4268.828396573197, -177.44703319761902, -0.04800000227987766, 0.0, 1.0240000486373901, 0.0, 0.0, 0.0, 0.0, 0.0, 1.707426899891188E9, 0.0, 2024-02-08 13:14:59.891
44.0, 1809.666530459188, 7641.146675268188, 4195.623594840523, -213.4734894707799, -0.04800000227987766, 0.0, 1.0240000486373901, 0.0, 0.0, 0.0, 0.0, 0.0, 1.70742689990228E9, 0.0, 2024-02-08 13:14:59.902
44.0, 1925.5697699859738, 7786.228614249267, 4371.694344854448, -20.427333557978272, -0.04800000227987766, 0.0, 1.0240000486373901, 0.0, 0.0, 0.0, 0.0, 0.0, 1.70742689990228E9, 0.0, 2024-02-08 13:14:59.902
45.0, 1947.747376723215, 7801.625782366842, 4432.224625637289, 16.16384760849178, -0.04800000227987766, 0.0, 1.0240000486373901, 0.0, 0.0, 0.0, 0.0, 0.0, 1.707426899934923E9, 0.0, 2024-02-08 13:14:59.934
45.0, 1738.9338025972247, 8032.843227177393, 4584.100092887878, 158.33053457411006, -0.04800000227987766, 0.0, 1.0240000486373901, 0.0, 0.0, 0.0, 0.0, 0.0, 1.707426899934923E9, 0.0, 2024-02-08 13:14:59.934
46.0, 1913.3963956302032, 8256.148913631681, 4352.071089786943, -39.598060730844736, -0.04800000227987766, 0.0, 1.0240000486373901, 0.0, 0.0, 0.0, 0.0, 0.0, 1.707426899938185E9, 0.0, 2024-02-08 13:14:59.938
46.0, 1975.0823054993525, 8330.015677656513, 4474.751028033439, 68.89269708376378, -0.04800000227987766, 0.0, 1.0240000486373901, 0.0, 0.0, 0.0, 0.0, 0.0, 1.707426899938185E9, 0.0, 2024-02-08 13:14:59.938
47.0, 1731.3829445866868, 8515.445527309552, 4598.274313719943, 151.07886856002733, -0.04800000227987766, 0.0, 1.0240000486373901, 0.0, 0.0, 0.0, 0.0, 0.0, 1.707426899941299E9, 0.0, 2024-02-08 13:14:59.941
47.0, 1886.5065149487928, 8723.724295741878, 4808.449211429805, -76.06582519877702, -0.04800000227987766, 0.0, 1.0240000486373901, 0.0, 0.0, 0.0, 0.0, 0.0, 1.707426899941299E9, 0.0, 2024-02-08 13:14:59.941
48.0, 1973.5639061173424, 8819.892083202489, 4948.026017676108, 59.408310796134174, -0.04800000227987766, 0.0, 1.0240000486373901, 0.0, 0.0, 0.0, 0.0, 0.0, 1.707426899944118E9, 0.0, 2024-02-08 13:14:59.944
48.0, 1858.113194485195, 8663.257593258284, 4788.724979063496, -150.28413981944323, -0.04800000227987766, 0.0, 1.0240000486373901, 0.0, 0.0, 0.0, 0.0, 0.0, 1.707426899944118E9, 0.0, 2024-02-08 13:14:59.944
49.0, 1836.0814438462257, 8661.163249283098, 4729.189511668868, -173.7482721414417, -0.04800000227987766, 0.0, 1.0240000486373901, 0.0, 0.0, 0.0, 0.0, 0.0, 1.707426899947946E9, 0.0, 2024-02-08 13:14:59.947
49.0, 1973.0477999234572, 8825.561771535315, 4930.867356679402, 28.58031546138227, -0.04800000227987766, 0.0, 1.0240000486373901, 0.0, 0.0, 0.0, 0.0, 0.0, 1.707426899947946E9, 0.0, 2024-02-08 13:14:59.947
50.0, 2003.4531865632161, 8855.507150480524, 5003.451335019432, 78.69497486762702, -0.04800000227987766, 0.0, 1.0240000486373901, 0.0, 0.0, 0.0, 0.0, 0.0, 1.707426899962555E9, 0.0, 2024-02-08 13:14:59.962
50.0, 1799.05269438494, 9088.78528016666, 5151.583162414376, 215.0049785026349, -0.04800000227987766, 0.0, 1.0240000486373901, 0.0, 0.0, 0.0, 0.0, 0.0, 1.707426899962555E9, 0.0, 2024-02-08 13:14:59.962
51.0, 1979.3009126493707, 9325.43492966285, 4926.974120825529, 23.509011121466756, -0.04800000227987766, 0.0, 1.0240000486373901, 0.0, 0.0, 0.0, 0.0, 0.0, 1.707426899978599E9, 0.0, 2024-02-08 13:14:59.978
51.0, 2059.41704950016, 9414.048119212966, 5062.66517101787, 146.8060328606516, -0.04800000227987766, 0.0, 1.0240000486373901, 0.0, 0.0, 0.0, 0.0, 0.0, 1.707426899978599E9, 0.0, 2024-02-08 13:14:59.978
52.0, 1828.1117170406505, 9605.300993097015, 5196.630257380661, 234.4262789725326, -0.04800000227987766, 0.0, 1.0240000486373901, 0.0, 0.0, 0.0, 0.0, 0.0, 1.707426899983302E9, 0.0, 2024-02-08 13:14:59.983
52.0, 1994.7504393663257, 9827.110719569027, 5405.952457900625, 5.1311427392065525, -0.04800000227987766, 0.0, 1.0240000486373901, 0.0, 0.0, 0.0, 0.0, 0.0, 1.707426899983302E9, 0.0, 2024-02-08 13:14:59.983
53.0, 2078.8533095698804, 9934.341131098568, 5553.259637355339, 147.42685625329614, -0.04800000227987766, 0.0, 1.0240000486373901, 0.0, 0.0, 0.0, 0.0, 0.0, 1.707426899992779E9, 0.0, 2024-02-08 13:14:59.992
53.0, 1944.6656991597265, 9756.00026181154, 5380.1097492068075, -80.39662934746593, -0.04800000227987766, 0.0, 1.0240000486373901, 0.0, 0.0, 0.0, 0.0, 0.0, 1.707426899992779E9, 0.0, 2024-02-08 13:14:59.992
54.0, 1918.8342101657763, 9730.886833609082, 5301.115582342725, -124.01134263072163, -0.04800000227987766, 0.0, 1.0240000486373901, 0.0, 0.0, 0.0, 0.0, 0.0, 1.707426900008543E9, 0.0, 2024-02-08 13:15:00.008
54.0, 2031.8764262264594, 9874.547610606998, 5468.476105359849, 64.15050393994898, -0.04800000227987766, 0.0, 1.0240000486373901, 0.0, 0.0, 0.0, 0.0, 0.0, 1.707426900008543E9, 0.0, 2024-02-08 13:15:00.008
55.0, 2054.1138713629916, 9887.985071147792, 5526.687648170162, 104.09263546671718, -0.04800000227987766, 0.0, 1.0240000486373901, 0.0, 0.0, 0.0, 0.0, 0.0, 1.707426900011768E9, 0.0, 2024-02-08 13:15:00.011
55.0, 1843.5462841577828, 10116.91369718546, 5674.5801219679415, 241.25533629162237, -0.04800000227987766, 0.0, 1.0240000486373901, 0.0, 0.0, 0.0, 0.0, 0.0, 1.707426900011768E9, 0.0, 2024-02-08 13:15:00.011
56.0, 2026.5582884894684, 10351.16981071001, 5447.5401454078965, 46.24760285206139, -0.04800000227987766, 0.0, 1.0240000486373901, 0.0, 0.0, 0.0, 0.0, 0.0, 1.70742690002257E9, 0.0, 2024-02-08 13:15:00.022
56.0, 2095.5931017715484, 10427.418891006615, 5566.416605399456, 163.5607846621424, -0.04800000227987766, 0.0, 1.0240000486373901, 0.0, 0.0, 0.0, 0.0, 0.0, 1.70742690002257E9, 0.0, 2024-02-08 13:15:00.022
57.0, 1853.999304533936, 10603.386793771759, 5688.017582508735, 237.05168874142691, -0.04800000227987766, 0.0, 1.0240000486373901, 0.0, 0.0, 0.0, 0.0, 0.0, 1.707426900038131E9, 0.0, 2024-02-08 13:15:00.038
57.0, 2011.2134789712727, 10815.816851154901, 5894.392741863616, 8.392335500568151, -0.04800000227987766, 0.0, 1.0240000486373901, 0.0, 0.0, 0.0, 0.0, 0.0, 1.707426900038131E9, 0.0, 2024-02-08 13:15:00.038
58.0, 2089.1492541478947, 10899.792564759962, 6029.418089863844, 134.08663311135024, -0.04800000227987766, 0.0, 1.0240000486373901, 0.0, 0.0, 0.0, 0.0, 0.0, 1.707426900041159E9, 0.0, 2024-02-08 13:15:00.041
58.0, 1958.6604047939181, 10730.621930164285, 5857.049840806052, -83.65782210882753, -0.04800000227987766, 0.0, 1.0240000486373901, 0.0, 0.0, 0.0, 0.0, 0.0, 1.707426900041159E9, 0.0, 2024-02-08 13:15:00.041
59.0, 1920.3488696478307, 10720.62143768277, 5786.040360347368, -119.6880182819441, -0.04800000227987766, 0.0, 1.0240000486373901, 0.0, 0.0, 0.0, 0.0, 0.0, 1.707426900052811E9, 0.0, 2024-02-08 13:15:00.052
59.0, 2034.5392349949107, 10864.985315872356, 5975.327916804701, 78.23496717307717, -0.04800000227987766, 0.0, 1.0240000486373901, 0.0, 0.0, 0.0, 0.0, 0.0, 1.707426900052811E9, 0.0, 2024-02-08 13:15:00.052
60.0, 2068.030039098114, 10889.23482718505, 6038.666862454265, 125.8027547094971, -0.04800000227987766, 0.0, 1.0240000486373901, 0.0, 0.0, 0.0, 0.0, 0.0, 1.707426900068499E9, 0.0, 2024-02-08 13:15:00.068
60.0, 1843.243352261372, 11114.46469216654, 6186.308762955014, 254.77881453139707, -0.04800000227987766, 0.0, 1.0240000486373901, 0.0, 0.0, 0.0, 0.0, 0.0, 1.707426900068499E9, 0.0, 2024-02-08 13:15:00.068
61.0, 2032.7216436164454, 11351.305076560471, 5960.914342375472, 61.06134657654911, -0.04800000227987766, 0.0, 1.0240000486373901, 0.0, 0.0, 0.0, 0.0, 0.0, 1.707426900071667E9, 0.0, 2024-02-08 13:15:00.071
61.0, 2091.3370956219733, 11426.3536489713, 6084.353480312973, 173.40420134551823, -0.04800000227987766, 0.0, 1.0240000486373901, 0.0, 0.0, 0.0, 0.0, 0.0, 1.707426900071667E9, 0.0, 2024-02-08 13:15:00.071
62.0, 2332.891623910051, 11600.20850826148, 6203.422545152251, 248.14423201000318, -0.04800000227987766, 0.0, 1.0240000486373901, 0.0, 0.0, 0.0, 0.0, 0.0, 1.707426900082711E9, 0.0, 2024-02-08 13:15:00.082
62.0, 2492.910723314155, 11815.52950831037, 6406.252279349137, 24.862854905426502, -0.04800000227987766, 0.0, 1.0240000486373901, 0.0, 0.0, 0.0, 0.0, 0.0, 1.707426900082711E9, 0.0, 2024-02-08 13:15:00.082
63.0, 2578.6441898983903, 11905.309546646662, 6544.96142880572, 147.9541821470484, -0.04800000227987766, 0.0, 1.0240000486373901, 0.0, 0.0, 0.0, 0.0, 0.0, 1.707426900098139E9, 0.0, 2024-02-08 13:15:00.098
63.0, 2443.918033894617, 11727.8999124486, 6369.081413689535, -75.38516340684146, -0.04800000227987766, 0.0, 1.0240000486373901, 0.0, 0.0, 0.0, 0.0, 0.0, 1.707426900098139E9, 0.0, 2024-02-08 13:15:00.098
64.0, 2412.936702661682, 11703.609262236394, 6293.868285680655, -118.7979220924899, -0.04800000227987766, 0.0, 1.0240000486373901, 0.0, 0.0, 0.0, 0.0, 0.0, 1.707426900101119E9, 0.0, 2024-02-08 13:15:00.101
64.0, 2533.9336859281175, 11860.943113472313, 6483.578450832982, 74.19587522093207, -0.04800000227987766, 0.0, 1.0240000486373901, 0.0, 0.0, 0.0, 0.0, 0.0, 1.707426900101119E9, 0.0, 2024-02-08 13:15:00.101
65.0, 2566.814886338543, 11878.79365596082, 6547.497080975678, 117.74701020494103, -0.04800000227987766, 0.0, 1.0240000486373901, 0.0, 0.0, 0.0, 0.0, 0.0, 1.707426900112356E9, 0.0, 2024-02-08 13:15:00.112
65.0, 2330.599065237213, 12097.669430917595, 6690.624922229908, 250.56768718129024, -0.04800000227987766, 0.0, 1.0240000486373901, 0.0, 0.0, 0.0, 0.0, 0.0, 1.707426900112356E9, 0.0, 2024-02-08 13:15:00.112
66.0, 2512.365682883654, 12334.083466716576, 6464.688216156792, 59.98799528926611, -0.04800000227987766, 0.0, 1.0240000486373901, 0.0, 0.0, 0.0, 0.0, 0.0, 1.707426900130017E9, 0.0, 2024-02-08 13:15:00.130
66.0, 2581.688468462322, 12410.280188413803, 6586.941805808339, 167.76443221233785, -0.04800000227987766, 0.0, 1.0240000486373901, 0.0, 0.0, 0.0, 0.0, 0.0, 1.707426900130017E9, 0.0, 2024-02-08 13:15:00.130
67.0, 2817.722904415801, 12584.381881101057, 6703.56123617664, 237.3583605377935, -0.04800000227987766, 0.0, 1.0240000486373901, 0.0, 0.0, 0.0, 0.0, 0.0, 1.707426900133684E9, 0.0, 2024-02-08 13:15:00.133
67.0, 2972.367767583579, 12792.051045840606, 6905.676649481989, 4.697314344346523, -0.04800000227987766, 0.0, 1.0240000486373901, 0.0, 0.0, 0.0, 0.0, 0.0, 1.707426900133684E9, 0.0, 2024-02-08 13:15:00.133
68.0, 3051.5003107460216, 12884.153562049381, 7035.151985947974, 130.8777989493683, -0.04800000227987766, 0.0, 1.0240000486373901, 0.0, 0.0, 0.0, 0.0, 0.0, 1.707426900142844E9, 0.0, 2024-02-08 13:15:00.142
68.0, 2908.374339441769, 12693.676717406139, 6847.887715366669, -97.83204294089228, -0.04800000227987766, 0.0, 1.0240000486373901, 0.0, 0.0, 0.0, 0.0, 0.0, 1.707426900142844E9, 0.0, 2024-02-08 13:15:00.142
69.0, 2883.032777342014, 12676.862127205357, 6775.752525021322, -138.79890705551952, -0.04800000227987766, 0.0, 1.0240000486373901, 0.0, 0.0, 0.0, 0.0, 0.0, 1.707426900158173E9, 0.0, 2024-02-08 13:15:00.158
69.0, 3002.1598106306046, 12825.455832244828, 6960.638219230808, 56.75298182759434, -0.04800000227987766, 0.0, 1.0240000486373901, 0.0, 0.0, 0.0, 0.0, 0.0, 1.707426900158173E9, 0.0, 2024-02-08 13:15:00.158
70.0, 3026.1475289463997, 12840.004043072462, 7013.767238001339, 95.55070396792144, -0.04800000227987766, 0.0, 1.0240000486373901, 0.0, 0.0, 0.0, 0.0, 0.0, 1.707426900161192E9, 0.0, 2024-02-08 13:15:00.161
70.0, 2810.2057055048645, 13060.267320912797, 7157.792655244935, 226.03394347196445, -0.04800000227987766, 0.0, 1.0240000486373901, 0.0, 0.0, 0.0, 0.0, 0.0, 1.707426900161192E9, 0.0, 2024-02-08 13:15:00.161
71.0, 2988.6999106900766, 13295.828659521881, 6932.286037666723, 36.22093107085675, -0.04800000227987766, 0.0, 1.0240000486373901, 0.0, 0.0, 0.0, 0.0, 0.0, 1.707426900172476E9, 0.0, 2024-02-08 13:15:00.172
71.0, 3061.5830810265616, 13368.7342692581, 7049.887191773392, 146.5517196636647, -0.04800000227987766, 0.0, 1.0240000486373901, 0.0, 0.0, 0.0, 0.0, 0.0, 1.707426900172476E9, 0.0, 2024-02-08 13:15:00.172
72.0, 3296.869536988903, 13533.452552956529, 7165.107899558265, 220.15108084166422, -0.04800000227987766, 0.0, 1.0240000486373901, 0.0, 0.0, 0.0, 0.0, 0.0, 1.707426900188322E9, 0.0, 2024-02-08 13:15:00.188
72.0, 3444.9284363347106, 13730.926750416867, 7356.194347894285, -17.25215849559754, -0.04800000227987766, 0.0, 1.0240000486373901, 0.0, 0.0, 0.0, 0.0, 0.0, 1.707426900188322E9, 0.0, 2024-02-08 13:15:00.188
73.0, 3503.9515374354087, 13792.276069290005, 7460.784390055109, 90.55419762711972, -0.04800000227987766, 0.0, 1.0240000486373901, 0.0, 0.0, 0.0, 0.0, 0.0, 1.707426900191143E9, 0.0, 2024-02-08 13:15:00.191
73.0, 3346.595246799756, 13595.01504612714, 7258.953209146392, -142.9202768066898, -0.04800000227987766, 0.0, 1.0240000486373901, 0.0, 0.0, 0.0, 0.0, 0.0, 1.707426900191143E9, 0.0, 2024-02-08 13:15:00.191
74.0, 3318.6432345309295, 13568.835746437311, 7177.5206275112, -180.9027007566765, -0.04800000227987766, 0.0, 1.0240000486373901, 0.0, 0.0, 0.0, 0.0, 0.0, 1.707426900202722E9, 0.0, 2024-02-08 13:15:00.202
74.0, 3441.3082131776027, 13721.390005529858, 7367.758118557278, 9.043078092858195, -0.04800000227987766, 0.0, 1.0240000486373901, 0.0, 0.0, 0.0, 0.0, 0.0, 1.707426900202722E9, 0.0, 2024-02-08 13:15:00.202
75.0, 3476.859702156391, 13742.348404881544, 7440.095263500232, 59.756121492013335, -0.04800000227987766, 0.0, 1.0240000486373901, 0.0, 0.0, 0.0, 0.0, 0.0, 1.707426900218318E9, 0.0, 2024-02-08 13:15:00.218
75.0, 3258.382226544898, 13975.00197127508, 7592.606513743289, 195.6622159318067, -0.04800000227987766, 0.0, 1.0240000486373901, 0.0, 0.0, 0.0, 0.0, 0.0, 1.707426900218318E9, 0.0, 2024-02-08 13:15:00.218
76.0, 3446.6450504143722, 13735.859678458422, 7377.2088457453065, 10.737252772785723, -0.04800000227987766, 0.0, 1.0240000486373901, 0.0, 0.0, 0.0, 0.0, 0.0, 1.707426900221167E9, 0.0, 2024-02-08 13:15:00.221
76.0, 3520.119124943856, 13812.856738746166, 7501.8784107682295, 120.2041244758293, -0.04800000227987766, 0.0, 1.0240000486373901, 0.0, 0.0, 0.0, 0.0, 0.0, 1.707426900221167E9, 0.0, 2024-02-08 13:15:00.221
77.0, 3751.175754056312, 13980.230351413134, 7615.767714168876, 194.9291955404915, -0.04800000227987766, 0.0, 1.0240000486373901, 0.0, 0.0, 0.0, 0.0, 0.0, 1.707426900232492E9, 0.0, 2024-02-08 13:15:00.232
77.0, 3903.610336350277, 14181.268673531245, 7816.469445290975, -40.469457420520484, -0.04800000227987766, 0.0, 1.0240000486373901, 0.0, 0.0, 0.0, 0.0, 0.0, 1.707426900232492E9, 0.0, 2024-02-08 13:15:00.232
78.0, 3983.356223105453, 14275.716107012238, 7946.924635545351, 86.93771436996758, -0.04800000227987766, 0.0, 1.0240000486373901, 0.0, 0.0, 0.0, 0.0, 0.0, 1.707426900248238E9, 0.0, 2024-02-08 13:15:00.248
78.0, 3844.6882125483826, 14095.389350848738, 7765.662904392928, -134.13151191081852, -0.04800000227987766, 0.0, 1.0240000486373901, 0.0, 0.0, 0.0, 0.0, 0.0, 1.707426900248238E9, 0.0, 2024-02-08 13:15:00.248
79.0, 3809.922102560289, 14070.283402446192, 7688.897717902437, -182.89606743305922, -0.04800000227987766, 0.0, 1.0240000486373901, 0.0, 0.0, 0.0, 0.0, 0.0, 1.707426900251274E9, 0.0, 2024-02-08 13:15:00.251
79.0, 3934.4046725854278, 14222.901239837985, 7867.552738785744, 8.755105796270072, -0.04800000227987766, 0.0, 1.0240000486373901, 0.0, 0.0, 0.0, 0.0, 0.0, 1.707426900251274E9, 0.0, 2024-02-08 13:15:00.251
80.0, 3958.0483201052994, 14240.101039734203, 7926.317786789499, 49.06374751869589, -0.04800000227987766, 0.0, 1.0240000486373901, 0.0, 0.0, 0.0, 0.0, 0.0, 1.707426900262567E9, 0.0, 2024-02-08 13:15:00.262
80.0, 3722.3934839973226, 14447.08767273184, 8051.920456851367, 167.84484006138518, -0.04800000227987766, 0.0, 1.0240000486373901, 0.0, 0.0, 0.0, 0.0, 0.0, 1.707426900262567E9, 0.0, 2024-02-08 13:15:00.262
81.0, 3911.740878853947, 14678.13121219445, 7816.518063990399, -24.862854905426502, -0.04800000227987766, 0.0, 1.0240000486373901, 0.0, 0.0, 0.0, 0.0, 0.0, 1.707426900278564E9, 0.0, 2024-02-08 13:15:00.278
81.0, 3980.065111144446, 14746.302108586766, 7932.166990320198, 89.57808373868465, -0.04800000227987766, 0.0, 1.0240000486373901, 0.0, 0.0, 0.0, 0.0, 0.0, 1.707426900278564E9, 0.0, 2024-02-08 13:15:00.278
82.0, 4198.372421307955, 14895.002400774974, 8027.97761733504, 152.51499014301226, -0.04800000227987766, 0.0, 1.0240000486373901, 0.0, 0.0, 0.0, 0.0, 0.0, 1.707426900282012E9, 0.0, 2024-02-08 13:15:00.282
82.0, 4340.275445326697, 15086.530157305766, 8209.931229979265, -90.61777592636645, -0.04800000227987766, 0.0, 1.0240000486373901, 0.0, 0.0, 0.0, 0.0, 0.0, 1.707426900282012E9, 0.0, 2024-02-08 13:15:00.282
83.0, 4405.39458335517, 15164.219099085312, 8319.054030886386, 17.32321659475565, -0.04800000227987766, 0.0, 1.0240000486373901, 0.0, 0.0, 0.0, 0.0, 0.0, 1.707426900292549E9, 0.0, 2024-02-08 13:15:00.292
83.0, 4256.613883317914, 14962.14108477952, 8119.350853052456, -212.45249678287655, -0.04800000227987766, 0.0, 1.0240000486373901, 0.0, 0.0, 0.0, 0.0, 0.0, 1.707426900292549E9, 0.0, 2024-02-08 13:15:00.292
84.0, 4224.1627714023925, 14930.613728153054, 8031.414585394319, -256.3065636632964, -0.04800000227987766, 0.0, 1.0240000486373901, 0.0, 0.0, 0.0, 0.0, 0.0, 1.707426900308181E9, 0.0, 2024-02-08 13:15:00.308
84.0, 4352.145887786057, 15087.36789489584, 8214.920256520156, -63.70171594526619, -0.04800000227987766, 0.0, 1.0240000486373901, 0.0, 0.0, 0.0, 0.0, 0.0, 1.707426900308181E9, 0.0, 2024-02-08 13:15:00.308
85.0, 4389.675783841405, 15118.7269560243, 8289.635977834929, -8.276398601941764, -0.04800000227987766, 0.0, 1.0240000486373901, 0.0, 0.0, 0.0, 0.0, 0.0, 1.707426900311161E9, 0.0, 2024-02-08 13:15:00.311
85.0, 4167.4060496748425, 15341.020999540575, 8432.217793695629, 120.7071410198696, -0.04800000227987766, 0.0, 1.0240000486373901, 0.0, 0.0, 0.0, 0.0, 0.0, 1.707426900311161E9, 0.0, 2024-02-08 13:15:00.311
86.0, 4364.827888535801, 15100.023716345895, 8219.277239968535, -55.98256243672222, -0.04800000227987766, 0.0, 1.0240000486373901, 0.0, 0.0, 0.0, 0.0, 0.0, 1.707426900322714E9, 0.0, 2024-02-08 13:15:00.322
86.0, 4437.763417471666, 15184.840907440986, 8350.334554115776, 50.926217696629465, -0.04800000227987766, 0.0, 1.0240000486373901, 0.0, 0.0, 0.0, 0.0, 0.0, 1.707426900322714E9, 0.0, 2024-02-08 13:15:00.322
87.0, 4673.895090823993, 15348.22778675519, 8468.962310760282, 129.7801383123733, -0.04800000227987766, 0.0, 1.0240000486373901, 0.0, 0.0, 0.0, 0.0, 0.0, 1.707426900338164E9, 0.0, 2024-02-08 13:15:00.338
87.0, 4838.596544972621, 15567.96560865175, 8680.001125359908, -97.58894944377244, -0.04800000227987766, 0.0, 1.0240000486373901, 0.0, 0.0, 0.0, 0.0, 0.0, 1.707426900338164E9, 0.0, 2024-02-08 13:15:00.338
88.0, 4926.9329819260165, 15675.330656579696, 8815.546319453977, 33.32998840510845, -0.04800000227987766, 0.0, 1.0240000486373901, 0.0, 0.0, 0.0, 0.0, 0.0, 1.707426900341091E9, 0.0, 2024-02-08 13:15:00.341
88.0, 4787.696506575681, 15480.511788087897, 8636.704303572886, -185.0165907079354, -0.04800000227987766, 0.0, 1.0240000486373901, 0.0, 0.0, 0.0, 0.0, 0.0, 1.707426900341091E9, 0.0, 2024-02-08 13:15:00.341
89.0, 4753.966348875314, 15457.907832755707, 8553.54762805812, -232.04209275078028, -0.04800000227987766, 0.0, 1.0240000486373901, 0.0, 0.0, 0.0, 0.0, 0.0, 1.707426900352803E9, 0.0, 2024-02-08 13:15:00.352
89.0, 4875.019430641085, 15617.059275370091, 8737.322571980767, -45.656698659062386, -0.04800000227987766, 0.0, 1.0240000486373901, 0.0, 0.0, 0.0, 0.0, 0.0, 1.707426900352803E9, 0.0, 2024-02-08 13:15:00.352
90.0, 4907.040454061702, 15639.988601998426, 8808.073999342509, 7.992166205309331, -0.04800000227987766, 0.0, 1.0240000486373901, 0.0, 0.0, 0.0, 0.0, 0.0, 1.707426900368922E9, 0.0, 2024-02-08 13:15:00.368
90.0, 4677.500354381278, 15851.567832141649, 8940.307512025815, 130.748772400897, -0.04800000227987766, 0.0, 1.0240000486373901, 0.0, 0.0, 0.0, 0.0, 0.0, 1.707426900368922E9, 0.0, 2024-02-08 13:15:00.368
91.0, 4879.133320592344, 15619.217197644524, 8730.822625857778, -47.77722193393856, -0.04800000227987766, 0.0, 1.0240000486373901, 0.0, 0.0, 0.0, 0.0, 0.0, 1.707426900372169E9, 0.0, 2024-02-08 13:15:00.372
91.0, 4963.041715998203, 15710.223923166282, 8869.729990012012, 71.15533655695617, -0.04800000227987766, 0.0, 1.0240000486373901, 0.0, 0.0, 0.0, 0.0, 0.0, 1.707426900372169E9, 0.0, 2024-02-08 13:15:00.372
92.0, 5185.208602915984, 15870.293511219788, 8977.923425780144, 143.77858384652063, -0.04800000227987766, 0.0, 1.0240000486373901, 0.0, 0.0, 0.0, 0.0, 0.0, 1.707426900382744E9, 0.0, 2024-02-08 13:15:00.382
92.0, 5352.363431435544, 16087.473241546657, 9192.552544337232, -86.17477477900684, -0.04800000227987766, 0.0, 1.0240000486373901, 0.0, 0.0, 0.0, 0.0, 0.0, 1.707426900382744E9, 0.0, 2024-02-08 13:15:00.382
93.0, 5443.830164651852, 16197.549716942478, 9341.909188967664, 51.95843008439988, -0.04800000227987766, 0.0, 1.0240000486373901, 0.0, 0.0, 0.0, 0.0, 0.0, 1.707426900398219E9, 0.0, 2024-02-08 13:15:00.398
93.0, 5309.896867438685, 16025.5853770799, 9170.303879500832, -165.58407053817064, -0.04800000227987766, 0.0, 1.0240000486373901, 0.0, 0.0, 0.0, 0.0, 0.0, 1.707426900398219E9, 0.0, 2024-02-08 13:15:00.398
94.0, 5282.561938662548, 16010.21064836206, 9102.981940398458, -206.9548438480124, -0.04800000227987766, 0.0, 1.0240000486373901, 0.0, 0.0, 0.0, 0.0, 0.0, 1.707426900401109E9, 0.0, 2024-02-08 13:15:00.401
94.0, 5425.519614468794, 16192.06328370748, 9314.634098590817, -0.39268949534744024, -0.04800000227987766, 0.0, 1.0240000486373901, 0.0, 0.0, 0.0, 0.0, 0.0, 1.707426900401109E9, 0.0, 2024-02-08 13:15:00.401
95.0, 5463.991965312976, 16233.09746602131, 9398.254521700088, 55.60857244115323, -0.04800000227987766, 0.0, 1.0240000486373901, 0.0, 0.0, 0.0, 0.0, 0.0, 1.707426900412501E9, 0.0, 2024-02-08 13:15:00.412
95.0, 5231.7404381646775, 16440.091578818858, 9539.175821980461, 182.92785658268258, -0.04800000227987766, 0.0, 1.0240000486373901, 0.0, 0.0, 0.0, 0.0, 0.0, 1.707426900412501E9, 0.0, 2024-02-08 13:15:00.412
96.0, 5444.87359673949, 16216.570848117117, 9336.998700325843, 7.958507105708122, -0.04800000227987766, 0.0, 1.0240000486373901, 0.0, 0.0, 0.0, 0.0, 0.0, 1.707426900428256E9, 0.0, 2024-02-08 13:15:00.428
96.0, 5527.057898265775, 16311.702683290001, 9483.655137188267, 135.03656770009547, -0.04800000227987766, 0.0, 1.0240000486373901, 0.0, 0.0, 0.0, 0.0, 0.0, 1.707426900428256E9, 0.0, 2024-02-08 13:15:00.428
97.0, 5751.906293451786, 16470.6839604564, 9600.319446356036, 205.69636751292273, -0.04800000227987766, 0.0, 1.0240000486373901, 0.0, 0.0, 0.0, 0.0, 0.0, 1.70742690043115E9, 0.0, 2024-02-08 13:15:00.431
97.0, 5915.20528511703, 16702.767192106694, 9816.377206696197, -23.74462481867522, -0.04800000227987766, 0.0, 1.0240000486373901, 0.0, 0.0, 0.0, 0.0, 0.0, 1.70742690043115E9, 0.0, 2024-02-08 13:15:00.431
98.0, 6011.294534678571, 16811.21681102179, 9964.144393845461, 113.10579435992986, -0.04800000227987766, 0.0, 1.0240000486373901, 0.0, 0.0, 0.0, 0.0, 0.0, 1.707426900442846E9, 0.0, 2024-02-08 13:15:00.442
98.0, 5872.308632625267, 16629.139781679027, 9790.29140450526, -97.07658314984292, -0.04800000227987766, 0.0, 1.0240000486373901, 0.0, 0.0, 0.0, 0.0, 0.0, 1.707426900442846E9, 0.0, 2024-02-08 13:15:00.442
99.0, 5838.896366421133, 16600.256534321234, 9709.139315366745, -149.8540513245389, -0.04800000227987766, 0.0, 1.0240000486373901, 0.0, 0.0, 0.0, 0.0, 0.0, 1.707426900458422E9, 0.0, 2024-02-08 13:15:00.458
99.0, 5975.339136504568, 16772.564944979735, 9916.501808309928, 59.04554050043225, -0.04800000227987766, 0.0, 1.0240000486373901, 0.0, 0.0, 0.0, 0.0, 0.0, 1.707426900458422E9, 0.0, 2024-02-08 13:15:00.458
100.0, 6010.266062190756, 16806.736410874873, 9992.672350707464, 107.61188132502139, -0.04800000227987766, 0.0, 1.0240000486373901, 0.0, 0.0, 0.0, 0.0, 0.0, 1.707426900461448E9, 0.0, 2024-02-08 13:15:00.461
100.0, 5770.994742825627, 17003.33734169556, 10122.13833742356, 227.58600195357576, -0.04800000227987766, 0.0, 1.0240000486373901, 0.0, 0.0, 0.0, 0.0, 0.0, 1.707426900461448E9, 0.0, 2024-02-08 13:15:00.461
0.0, 113.4816543054767, 149.11355113331228, 144.0721659930423, 115.19826838513836, -0.04800000227987766, 0.0, 1.0240000486373901, 0.0, 0.0, 0.0, 0.0, 0.0, 1.707426900473004E9, 0.0, 2024-02-08 13:15:00.473
1.0, 181.19628290319815, 239.46205426286906, 271.11656748782843, 235.14807966398075, -0.04800000227987766, 0.0, 1.0240000486373901, 0.0, 0.0, 0.0, 0.0, 0.0, 1.707426900488151E9, 0.0, 2024-02-08 13:15:00.488
1.0, 401.88216943852603, 385.39856038382277, 380.0205842475407, 300.8786913352087, -0.04800000227987766, 0.0, 1.0240000486373901, 0.0, 0.0, 0.0, 0.0, 0.0, 1.707426900488151E9, 0.0, 2024-02-08 13:15:00.488
2.0, 569.2875712551177, 603.0420383051969, 594.1635158103891, 75.52166975522414, -0.04800000227987766, 0.0, 1.0240000486373901, 0.0, 0.0, 0.0, 0.0, 0.0, 1.707426900491187E9, 0.0, 2024-02-08 13:15:00.491
2.0, 662.620514549315, 712.707124705892, 741.5118341646157, 204.39862222829834, -0.04800000227987766, 0.0, 1.0240000486373901, 0.0, 0.0, 0.0, 0.0, 0.0, 1.707426900491187E9, 0.0, 2024-02-08 13:15:00.491
3.0, 521.065301226452, 530.7796913613565, 562.2771287881769, -14.168610982131213, -0.04800000227987766, 0.0, 1.0240000486373901, 0.0, 0.0, 0.0, 0.0, 0.0, 1.707426900503273E9, 0.0, 2024-02-08 13:15:00.503
3.0, 488.18036091607064, 492.19140361854807, 475.78820241289213, -64.79563668230549, -0.04800000227987766, 0.0, 1.0240000486373901, 0.0, 0.0, 0.0, 0.0, 0.0, 1.707426900503273E9, 0.0, 2024-02-08 13:15:00.503
4.0, 623.4226231137291, 656.3094333740883, 669.5711186169647, 134.24557885946706, -0.04800000227987766, 0.0, 1.0240000486373901, 0.0, 0.0, 0.0, 0.0, 0.0, 1.707426900506347E9, 0.0, 2024-02-08 13:15:00.506
4.0, 666.4875711034983, 679.9942197934724, 737.685916509945, 185.87863764772192, -0.04800000227987766, 0.0, 1.0240000486373901, 0.0, 0.0, 0.0, 0.0, 0.0, 1.707426900506347E9, 0.0, 2024-02-08 13:15:00.506
5.0, 888.0149351288565, 868.0008605159819, 847.2818147614598, 299.3341126535088, -0.04800000227987766, 0.0, 1.0240000486373901, 0.0, 0.0, 0.0, 0.0, 0.0, 1.707426900517767E9, 0.0, 2024-02-08 13:15:00.517
5.0, 1088.4997520535253, 627.3626077170484, 634.4010994336568, 118.75117334304377, -0.04800000227987766, 0.0, 1.0240000486373901, 0.0, 0.0, 0.0, 0.0, 0.0, 1.707426900517767E9, 0.0, 2024-02-08 13:15:00.517
6.0, 1159.2287400155328, 713.4251854973845, 762.6497487141751, 232.69844519300386, -0.04800000227987766, 0.0, 1.0240000486373901, 0.0, 0.0, 0.0, 0.0, 0.0, 1.707426900533475E9, 0.0, 2024-02-08 13:15:00.533
6.0, 1376.9862848855555, 852.0875862045214, 859.8366589127108, 298.08498606830835, -0.04800000227987766, 0.0, 1.0240000486373901, 0.0, 0.0, 0.0, 0.0, 0.0, 1.707426900533475E9, 0.0, 2024-02-08 13:15:00.533
7.0, 1531.2608979577199, 1068.459498140961, 1066.3202753663063, 70.72337811207399, -0.04800000227987766, 0.0, 1.0240000486373901, 0.0, 0.0, 0.0, 0.0, 0.0, 1.707426900536752E9, 0.0, 2024-02-08 13:15:00.536
7.0, 1613.030070588924, 1170.0688400371, 1204.6292555276304, 200.53904547402635, -0.04800000227987766, 0.0, 1.0240000486373901, 0.0, 0.0, 0.0, 0.0, 0.0, 1.707426900536752E9, 0.0, 2024-02-08 13:15:00.536
8.0, 1469.399212790653, 980.1380207873881, 1020.0689326142892, -24.270080762449652, -0.04800000227987766, 0.0, 1.0240000486373901, 0.0, 0.0, 0.0, 0.0, 0.0, 1.707426900547471E9, 0.0, 2024-02-08 13:15:00.547
8.0, 1424.546592622064, 940.6596368551254, 926.4480170235038, -81.60648698313162, -0.04800000227987766, 0.0, 1.0240000486373901, 0.0, 0.0, 0.0, 0.0, 0.0, 1.707426900547471E9, 0.0, 2024-02-08 13:15:00.547
9.0, 1559.082013728097, 1107.3731571799144, 1117.968293754384, 118.48938034614548, -0.04800000227987766, 0.0, 1.0240000486373901, 0.0, 0.0, 0.0, 0.0, 0.0, 1.707426900563147E9, 0.0, 2024-02-08 13:15:00.563
9.0, 1589.4350417684764, 1129.1879936214536, 1177.6122182477266, 168.23752955673262, -0.04800000227987766, 0.0, 1.0240000486373901, 0.0, 0.0, 0.0, 0.0, 0.0, 1.707426900563147E9, 0.0, 2024-02-08 13:15:00.563
10.0, 1823.5920479441993, 1304.146123398561, 1287.5895862947218, 271.36340088490397, -0.04800000227987766, 0.0, 1.0240000486373901, 0.0, 0.0, 0.0, 0.0, 0.0, 1.707426900566149E9, 0.0, 2024-02-08 13:15:00.566
10.0, 2023.3475843775086, 1072.8501406889409, 1065.8677474716678, 98.56319338222966, -0.04800000227987766, 0.0, 1.0240000486373901, 0.0, 0.0, 0.0, 0.0, 0.0, 1.707426900566149E9, 0.0, 2024-02-08 13:15:00.566
11.0, 2095.9876612168737, 1158.755642671138, 1190.077304800041, 208.25445908261463, -0.04800000227987766, 0.0, 1.0240000486373901, 0.0, 0.0, 0.0, 0.0, 0.0, 1.707426900578157E9, 0.0, 2024-02-08 13:15:00.578
11.0, 2311.0300387190655, 1291.6436378466897, 1278.673664800357, 266.4641319429502, -0.04800000227987766, 0.0, 1.0240000486373901, 0.0, 0.0, 0.0, 0.0, 0.0, 1.707426900578157E9, 0.0, 2024-02-08 13:15:00.578
12.0, 2471.116456322372, 1505.6407133112662, 1480.893795304466, 36.204101521056145, -0.04800000227987766, 0.0, 1.0240000486373901, 0.0, 0.0, 0.0, 0.0, 0.0, 1.707426900593499E9, 0.0, 2024-02-08 13:15:00.593
12.0, 2556.6442284090444, 1606.73394901352, 1618.5482929735444, 165.54854148859158, -0.04800000227987766, 0.0, 1.0240000486373901, 0.0, 0.0, 0.0, 0.0, 0.0, 1.707426900593499E9, 0.0, 2024-02-08 13:15:00.593
13.0, 2415.8743940768763, 1417.16590005951, 1431.5981739885174, -56.291104183066636, -0.04800000227987766, 0.0, 1.0240000486373901, 0.0, 0.0, 0.0, 0.0, 0.0, 1.707426900596537E9, 0.0, 2024-02-08 13:15:00.596
13.0, 2372.0951251955703, 1374.0074545708485, 1337.1245612078346, -114.99631378753111, -0.04800000227987766, 0.0, 1.0240000486373901, 0.0, 0.0, 0.0, 0.0, 0.0, 1.707426900596537E9, 0.0, 2024-02-08 13:15:00.596
14.0, 2508.694971077144, 1547.3929564165883, 1534.85307186516, 90.2830548803322, -0.04800000227987766, 0.0, 1.0240000486373901, 0.0, 0.0, 0.0, 0.0, 0.0, 1.707426900607726E9, 0.0, 2024-02-08 13:15:00.607
14.0, 2537.207968339324, 1570.9767655371688, 1598.9699167055078, 138.20239301258698, -0.04800000227987766, 0.0, 1.0240000486373901, 0.0, 0.0, 0.0, 0.0, 0.0, 1.707426900607726E9, 0.0, 2024-02-08 13:15:00.607
15.0, 2292.293139941059, 1754.5665844120085, 1719.116072732024, 252.95935320295393, -0.04800000227987766, 0.0, 1.0240000486373901, 0.0, 0.0, 0.0, 0.0, 0.0, 1.707426900623162E9, 0.0, 2024-02-08 13:15:00.623
15.0, 2488.6341477148235, 1519.5681007462554, 1497.7457845048048, 67.88479404570535, -0.04800000227987766, 0.0, 1.0240000486373901, 0.0, 0.0, 0.0, 0.0, 0.0, 1.707426900623162E9, 0.0, 2024-02-08 13:15:00.623
16.0, 2563.776217624545, 1603.4839759520255, 1625.0631986963563, 179.07949952827767, -0.04800000227987766, 0.0, 1.0240000486373901, 0.0, 0.0, 0.0, 0.0, 0.0, 1.707426900626023E9, 0.0, 2024-02-08 13:15:00.626
16.0, 2770.2392646283843, 1736.9703551204875, 1715.5519480742514, 234.54408582113683, -0.04800000227987766, 0.0, 1.0240000486373901, 0.0, 0.0, 0.0, 0.0, 0.0, 1.707426900626023E9, 0.0, 2024-02-08 13:15:00.626
17.0, 2933.4148395950906, 1950.3840061919764, 1917.2896314840764, 9.725609834771603, -0.04800000227987766, 0.0, 1.0240000486373901, 0.0, 0.0, 0.0, 0.0, 0.0, 1.707426900637755E9, 0.0, 2024-02-08 13:15:00.637
17.0, 3017.1025809035636, 2050.9947947999462, 2051.394964095205, 134.3390763583593, -0.04800000227987766, 0.0, 1.0240000486373901, 0.0, 0.0, 0.0, 0.0, 0.0, 1.707426900637755E9, 0.0, 2024-02-08 13:15:00.637
18.0, 2873.531561504584, 1866.1539793899283, 1864.7440371066332, -84.2805154514499, -0.04800000227987766, 0.0, 1.0240000486373901, 0.0, 0.0, 0.0, 0.0, 0.0, 1.707426900653351E9, 0.0, 2024-02-08 13:15:00.653
18.0, 2826.7977716582827, 1814.4087236030027, 1765.427253883332, -147.6493803006597, -0.04800000227987766, 0.0, 1.0240000486373901, 0.0, 0.0, 0.0, 0.0, 0.0, 1.707426900653351E9, 0.0, 2024-02-08 13:15:00.653
19.0, 2962.9787487448193, 1983.1118707042187, 1963.2305625397712, 55.543124191928655, -0.04800000227987766, 0.0, 1.0240000486373901, 0.0, 0.0, 0.0, 0.0, 0.0, 1.707426900656352E9, 0.0, 2024-02-08 13:15:00.656
19.0, 2988.4250280433334, 2008.35245550517, 2024.1086540184915, 102.50504793552682, -0.04800000227987766, 0.0, 1.0240000486373901, 0.0, 0.0, 0.0, 0.0, 0.0, 1.707426900656352E9, 0.0, 2024-02-08 13:15:00.656
20.0, 3230.473223125562, 2186.1940481481142, 2133.913986667525, 212.77786807902157, -0.04800000227987766, 0.0, 1.0240000486373901, 0.0, 0.0, 0.0, 0.0, 0.0, 1.707426900667517E9, 0.0, 2024-02-08 13:15:00.667
20.0, 3433.897601415403, 1956.8914321148768, 1918.8080308660865, 30.493274288717657, -0.04800000227987766, 0.0, 1.0240000486373901, 0.0, 0.0, 0.0, 0.0, 0.0, 1.707426900667517E9, 0.0, 2024-02-08 13:15:00.667
21.0, 3509.2491057226434, 2049.573632816784, 2044.5883461758494, 150.1962521704845, -0.04800000227987766, 0.0, 1.0240000486373901, 0.0, 0.0, 0.0, 0.0, 0.0, 1.707426900683158E9, 0.0, 2024-02-08 13:15:00.683
21.0, 3724.66921312036, 2172.8126861066557, 2139.2134249047376, 211.06873379927129, -0.04800000227987766, 0.0, 1.0240000486373901, 0.0, 0.0, 0.0, 0.0, 0.0, 1.707426900683158E9, 0.0, 2024-02-08 13:15:00.683
22.0, 3886.6106211016886, 2404.1890766653232, 2348.1541556292213, -16.461169654969126, -0.04800000227987766, 0.0, 1.0240000486373901, 0.0, 0.0, 0.0, 0.0, 0.0, 1.707426900686177E9, 0.0, 2024-02-08 13:15:00.686
22.0, 3971.970097690355, 2509.5981569164433, 2486.119064994622, 113.32831840729341, -0.04800000227987766, 0.0, 1.0240000486373901, 0.0, 0.0, 0.0, 0.0, 0.0, 1.707426900686177E9, 0.0, 2024-02-08 13:15:00.686
23.0, 3836.4398631961085, 2320.299380759243, 2305.2313238377683, -108.72076166188344, -0.04800000227987766, 0.0, 1.0240000486373901, 0.0, 0.0, 0.0, 0.0, 0.0, 1.707426900697515E9, 0.0, 2024-02-08 13:15:00.697
23.0, 3786.5421179872938, 2273.685267711524, 2208.9102004789747, -170.33935333183035, -0.04800000227987766, 0.0, 1.0240000486373901, 0.0, 0.0, 0.0, 0.0, 0.0, 1.707426900697515E9, 0.0, 2024-02-08 13:15:00.697
24.0, 3932.0466656633653, 2451.375394406263, 2410.5543863899074, 33.552512452472, -0.04800000227987766, 0.0, 1.0240000486373901, 0.0, 0.0, 0.0, 0.0, 0.0, 1.707426900713549E9, 0.0, 2024-02-08 13:15:00.713
24.0, 3967.8749072388746, 2485.3075067042373, 2486.4406963908114, 94.02295483602211, -0.04800000227987766, 0.0, 1.0240000486373901, 0.0, 0.0, 0.0, 0.0, 0.0, 1.707426900713549E9, 0.0, 2024-02-08 13:15:00.713
25.0, 4203.6363304955885, 2664.413185532205, 2598.546067512594, 201.89101930800825, -0.04800000227987766, 0.0, 1.0240000486373901, 0.0, 0.0, 0.0, 0.0, 0.0, 1.707426900716762E9, 0.0, 2024-02-08 13:15:00.716
25.0, 4408.444471769035, 2450.406760317739, 2395.243235971313, 23.305186573881656, -0.04800000227987766, 0.0, 1.0240000486373901, 0.0, 0.0, 0.0, 0.0, 0.0, 1.707426900716762E9, 0.0, 2024-02-08 13:15:00.716
26.0, 4495.430804838426, 2542.5466755260713, 2531.1960791605525, 140.40145418653265, -0.04800000227987766, 0.0, 1.0240000486373901, 0.0, 0.0, 0.0, 0.0, 0.0, 1.707426900727766E9, 0.0, 2024-02-08 13:15:00.727
26.0, 4702.477276235353, 2672.611046235077, 2631.0083991279826, 205.18213126901537, -0.04800000227987766, 0.0, 1.0240000486373901, 0.0, 0.0, 0.0, 0.0, 0.0, 1.707426900727766E9, 0.0, 2024-02-08 13:15:00.727
27.0, 4875.129757689778, 2910.60331981536, 2853.2519539948553, -17.93843013746664, -0.04800000227987766, 0.0, 1.0240000486373901, 0.0, 0.0, 0.0, 0.0, 0.0, 1.707426900743181E9, 0.0, 2024-02-08 13:15:00.743
27.0, 4965.02199302474, 3024.0008263718337, 2999.6540776602924, 113.5190533050336, -0.04800000227987766, 0.0, 1.0240000486373901, 0.0, 0.0, 0.0, 0.0, 0.0, 1.707426900743181E9, 0.0, 2024-02-08 13:15:00.743
28.0, 4830.800723514985, 2841.643304532394, 2826.519149111584, -98.70156968059018, -0.04800000227987766, 0.0, 1.0240000486373901, 0.0, 0.0, 0.0, 0.0, 0.0, 1.707426900746027E9, 0.0, 2024-02-08 13:15:00.746
28.0, 4788.150904420298, 2799.7863442283124, 2731.4508922379464, -159.87511325581, -0.04800000227987766, 0.0, 1.0240000486373901, 0.0, 0.0, 0.0, 0.0, 0.0, 1.707426900746027E9, 0.0, 2024-02-08 13:15:00.746
29.0, 4934.642785684671, 2983.0676213568076, 2943.192808029242, 50.03799145715311, -0.04800000227987766, 0.0, 1.0240000486373901, 0.0, 0.0, 0.0, 0.0, 0.0, 1.707426900757363E9, 0.0, 2024-02-08 13:15:00.757
29.0, 4965.687695216853, 3020.874270008877, 3023.428621678613, 105.23891480313614, -0.04800000227987766, 0.0, 1.0240000486373901, 0.0, 0.0, 0.0, 0.0, 0.0, 1.707426900757363E9, 0.0, 2024-02-08 13:15:00.757
30.0, 5203.82395494543, 3190.372145850677, 3133.7874595210887, 209.01178882364184, -0.04800000227987766, 0.0, 1.0240000486373901, 0.0, 0.0, 0.0, 0.0, 0.0, 1.707426900773288E9, 0.0, 2024-02-08 13:15:00.773
30.0, 5411.919468279928, 2979.518456298858, 2938.476794185117, 42.95836084103212, -0.04800000227987766, 0.0, 1.0240000486373901, 0.0, 0.0, 0.0, 0.0, 0.0, 1.707426900773288E9, 0.0, 2024-02-08 13:15:00.773
31.0, 5497.286424668506, 3078.090999430977, 3081.1689370945096, 163.53273541247472, -0.04800000227987766, 0.0, 1.0240000486373901, 0.0, 0.0, 0.0, 0.0, 0.0, 1.707426900776152E9, 0.0, 2024-02-08 13:15:00.776
31.0, 5704.598428962287, 3203.170083499048, 3177.9893370973878, 224.50619434006512, -0.04800000227987766, 0.0, 1.0240000486373901, 0.0, 0.0, 0.0, 0.0, 0.0, 1.707426900776152E9, 0.0, 2024-02-08 13:15:00.776
32.0, 5879.65566608822, 3438.6192251094617, 3395.8684287159704, -5.996929578948766, -0.04800000227987766, 0.0, 1.0240000486373901, 0.0, 0.0, 0.0, 0.0, 0.0, 1.707426900787833E9, 0.0, 2024-02-08 13:15:00.787
32.0, 5972.143391992431, 3556.5158313126303, 3549.054730901029, 133.8977681635879, -0.04800000227987766, 0.0, 1.0240000486373901, 0.0, 0.0, 0.0, 0.0, 0.0, 1.707426900787833E9, 0.0, 2024-02-08 13:15:00.787
33.0, 5841.878936635796, 3373.283172883559, 3375.141903161537, -76.58754124259576, -0.04800000227987766, 0.0, 1.0240000486373901, 0.0, 0.0, 0.0, 0.0, 0.0, 1.707426900819571E9, 0.0, 2024-02-08 13:15:00.819
33.0, 5794.875873992685, 3335.6485596294515, 3284.636324233841, -134.14834146061912, -0.04800000227987766, 0.0, 1.0240000486373901, 0.0, 0.0, 0.0, 0.0, 0.0, 1.707426900819571E9, 0.0, 2024-02-08 13:15:00.819
34.0, 5940.862868763041, 3523.354138405528, 3501.2887286669575, 75.3122353577055, -0.04800000227987766, 0.0, 1.0240000486373901, 0.0, 0.0, 0.0, 0.0, 0.0, 1.707426900822533E9, 0.0, 2024-02-08 13:15:00.822
34.0, 5988.251141101588, 3565.0914219110273, 3589.6700444198214, 134.85144265228882, -0.04800000227987766, 0.0, 1.0240000486373901, 0.0, 0.0, 0.0, 0.0, 0.0, 1.707426900822533E9, 0.0, 2024-02-08 13:15:00.822
35.0, 6224.764284249395, 3737.9178087133914, 3700.7319834539667, 246.73615967668593, -0.04800000227987766, 0.0, 1.0240000486373901, 0.0, 0.0, 0.0, 0.0, 0.0, 1.707426900825597E9, 0.0, 2024-02-08 13:15:00.825
35.0, 6439.445761405863, 3527.2174550597556, 3507.7400560905226, 80.61915339482948, -0.04800000227987766, 0.0, 1.0240000486373901, 0.0, 0.0, 0.0, 0.0, 0.0, 1.707426900825597E9, 0.0, 2024-02-08 13:15:00.825
36.0, 6524.528485397808, 3632.8097904087044, 3653.0725683686323, 204.52951872674748, -0.04800000227987766, 0.0, 1.0240000486373901, 0.0, 0.0, 0.0, 0.0, 0.0, 1.707426900828702E9, 0.0, 2024-02-08 13:15:00.828
36.0, 6731.649754793849, 3760.450705946423, 3752.6642342386767, 265.40948015544564, -0.04800000227987766, 0.0, 1.0240000486373901, 0.0, 0.0, 0.0, 0.0, 0.0, 1.707426900828702E9, 0.0, 2024-02-08 13:15:00.828
37.0, 6910.847061170731, 3992.1749072009698, 3965.228928020224, 45.23969981400296, -0.04800000227987766, 0.0, 1.0240000486373901, 0.0, 0.0, 0.0, 0.0, 0.0, 1.707426900832395E9, 0.0, 2024-02-08 13:15:00.832
37.0, 7008.361212615389, 4112.420170576312, 4124.054999338463, 184.89878385933116, -0.04800000227987766, 0.0, 1.0240000486373901, 0.0, 0.0, 0.0, 0.0, 0.0, 1.707426900832395E9, 0.0, 2024-02-08 13:15:00.832
38.0, 6863.376511033159, 3926.5172235788777, 3951.237962285988, -27.445255824830383, -0.04800000227987766, 0.0, 1.0240000486373901, 0.0, 0.0, 0.0, 0.0, 0.0, 1.707426900847774E9, 0.0, 2024-02-08 13:15:00.847
38.0, 6820.618234839756, 3883.5008942885324, 3857.321594598703, -83.43529806146398, -0.04800000227987766, 0.0, 1.0240000486373901, 0.0, 0.0, 0.0, 0.0, 0.0, 1.707426900847774E9, 0.0, 2024-02-08 13:15:00.847
39.0, 6966.8595428070985, 4072.2873041518033, 4072.556576948613, 128.47117332788184, -0.04800000227987766, 0.0, 1.0240000486373901, 0.0, 0.0, 0.0, 0.0, 0.0, 1.707426900863615E9, 0.0, 2024-02-08 13:15:00.863
39.0, 7011.626145276707, 4117.629851214588, 4163.466065071523, 193.02932636300102, -0.04800000227987766, 0.0, 1.0240000486373901, 0.0, 0.0, 0.0, 0.0, 0.0, 1.707426900863615E9, 0.0, 2024-02-08 13:15:00.863
40.0, 7244.949153762311, 4283.739377696533, 4268.940593571868, 296.22999569028616, -0.04800000227987766, 0.0, 1.0240000486373901, 0.0, 0.0, 0.0, 0.0, 0.0, 1.707426900866944E9, 0.0, 2024-02-08 13:15:00.866
40.0, 7459.634370818734, 4076.019724307582, 4076.5283507015556, 133.50507866824046, -0.04800000227987766, 0.0, 1.0240000486373901, 0.0, 0.0, 0.0, 0.0, 0.0, 1.707426900866944E9, 0.0, 2024-02-08 13:15:00.866
41.0, 7549.085297958925, 4180.639685668051, 4218.700647517107, 257.60991879785433, -0.04800000227987766, 0.0, 1.0240000486373901, 0.0, 0.0, 0.0, 0.0, 0.0, 1.707426900877616E9, 0.0, 2024-02-08 13:15:00.877
41.0, 7753.188468090724, 4300.232336501125, 4309.780301088002, 312.4125427985564, -0.04800000227987766, 0.0, 1.0240000486373901, 0.0, 0.0, 0.0, 0.0, 0.0, 1.707426900877616E9, 0.0, 2024-02-08 13:15:00.877
42.0, 7930.145574394148, 4537.181177993771, 4535.804894810077, 91.59575976477936, -0.04800000227987766, 0.0, 1.0240000486373901, 0.0, 0.0, 0.0, 0.0, 0.0, 1.707426900893022E9, 0.0, 2024-02-08 13:15:00.893
42.0, 8028.172092132736, 4657.430181269068, 4696.691651003901, 232.54884919477627, -0.04800000227987766, 0.0, 1.0240000486373901, 0.0, 0.0, 0.0, 0.0, 0.0, 1.707426900893022E9, 0.0, 2024-02-08 13:15:00.893
43.0, 7896.041426698212, 4474.590212335344, 4525.763263429049, 21.97378218965605, -0.04800000227987766, 0.0, 1.0240000486373901, 0.0, 0.0, 0.0, 0.0, 0.0, 1.707426900896129E9, 0.0, 2024-02-08 13:15:00.896
43.0, 7850.2239123410545, 4433.750504819211, 4434.96597230481, -28.054859517607838, -0.04800000227987766, 0.0, 1.0240000486373901, 0.0, 0.0, 0.0, 0.0, 0.0, 1.707426900896129E9, 0.0, 2024-02-08 13:15:00.896
44.0, 8005.871068696957, 4633.117091657128, 4671.45106620295, 184.35649836575612, -0.04800000227987766, 0.0, 1.0240000486373901, 0.0, 0.0, 0.0, 0.0, 0.0, 1.707426900907521E9, 0.0, 2024-02-08 13:15:00.907
44.0, 8067.291445669252, 4698.7710353792645, 4782.612112585921, 267.60293147945777, -0.04800000227987766, 0.0, 1.0240000486373901, 0.0, 0.0, 0.0, 0.0, 0.0, 1.707426900907521E9, 0.0, 2024-02-08 13:15:00.907
45.0, 7854.715532187838, 4925.855890738778, 4974.156698666513, 421.2286719093099, -0.04800000227987766, 0.0, 1.0240000486373901, 0.0, 0.0, 0.0, 0.0, 0.0, 1.707426900939827E9, 0.0, 2024-02-08 13:15:00.939
45.0, 8000.399595061783, 5135.3763059563935, 5193.348495169543, 198.2577065010555, -0.04800000227987766, 0.0, 1.0240000486373901, 0.0, 0.0, 0.0, 0.0, 0.0, 1.707426900939827E9, 0.0, 2024-02-08 13:15:00.939
46.0, 8027.906559235882, 5154.932242824696, 5220.208456651308, 260.8785913591273, -0.04800000227987766, 0.0, 1.0240000486373901, 0.0, 0.0, 0.0, 0.0, 0.0, 1.707426900943237E9, 0.0, 2024-02-08 13:15:00.943
46.0, 8227.50688982103, 5259.359599337447, 5285.6024773265235, 299.46126925200224, -0.04800000227987766, 0.0, 1.0240000486373901, 0.0, 0.0, 0.0, 0.0, 0.0, 1.707426900943237E9, 0.0, 2024-02-08 13:15:00.943
47.0, 8409.539040364325, 5491.7420229841955, 5509.020360779483, 83.12488636514172, -0.04800000227987766, 0.0, 1.0240000486373901, 0.0, 0.0, 0.0, 0.0, 0.0, 1.707426900946441E9, 0.0, 2024-02-08 13:15:00.946
47.0, 8497.87547731772, 5601.1677557877265, 5650.530695302878, 213.25096542341635, -0.04800000227987766, 0.0, 1.0240000486373901, 0.0, 0.0, 0.0, 0.0, 0.0, 1.707426900946441E9, 0.0, 2024-02-08 13:15:00.946
48.0, 8347.905489094555, 5404.591134316754, 5468.988471653778, -2.3841862217523158, -0.04800000227987766, 0.0, 1.0240000486373901, 0.0, 0.0, 0.0, 0.0, 0.0, 1.707426900949523E9, 0.0, 2024-02-08 13:15:00.949
48.0, 8295.460872015916, 5354.0463864156045, 5370.060638025869, -67.91471324535087, -0.04800000227987766, 0.0, 1.0240000486373901, 0.0, 0.0, 0.0, 0.0, 0.0, 1.707426900949523E9, 0.0, 2024-02-08 13:15:00.949
49.0, 8444.892314645462, 5546.7746508321725, 5585.78928716993, 148.4235395914875, -0.04800000227987766, 0.0, 1.0240000486373901, 0.0, 0.0, 0.0, 0.0, 0.0, 1.707426900953407E9, 0.0, 2024-02-08 13:15:00.953
49.0, 8486.150890956633, 5591.294419904705, 5667.360245103482, 210.7078334535472, -0.04800000227987766, 0.0, 1.0240000486373901, 0.0, 0.0, 0.0, 0.0, 0.0, 1.707426900953407E9, 0.0, 2024-02-08 13:15:00.953
50.0, 8709.095677065197, 5745.582122626714, 5767.785908663645, 307.2477409597486, -0.04800000227987766, 0.0, 1.0240000486373901, 0.0, 0.0, 0.0, 0.0, 0.0, 1.707426900967475E9, 0.0, 2024-02-08 13:15:00.967
50.0, 8933.306419308763, 5545.080476152245, 5580.512288332451, 149.4632317791693, -0.04800000227987766, 0.0, 1.0240000486373901, 0.0, 0.0, 0.0, 0.0, 0.0, 1.707426900967475E9, 0.0, 2024-02-08 13:15:00.967
51.0, 9014.077038651798, 5645.130279766861, 5725.309994916897, 272.1543897255324, -0.04800000227987766, 0.0, 1.0240000486373901, 0.0, 0.0, 0.0, 0.0, 0.0, 1.707426900983001E9, 0.0, 2024-02-08 13:15:00.983
51.0, 9211.58302526176, 5759.094381166622, 5805.558898216113, 320.87967629823834, -0.04800000227987766, 0.0, 1.0240000486373901, 0.0, 0.0, 0.0, 0.0, 0.0, 1.707426900983001E9, 0.0, 2024-02-08 13:15:00.983
52.0, 9380.087957665324, 5982.433726720512, 6006.286808637902, 92.46341655449942, -0.04800000227987766, 0.0, 1.0240000486373901, 0.0, 0.0, 0.0, 0.0, 0.0, 1.70742690098615E9, 0.0, 2024-02-08 13:15:00.986
52.0, 9468.106503122486, 6083.474603823386, 6144.300336702727, 214.44025360932574, -0.04800000227987766, 0.0, 1.0240000486373901, 0.0, 0.0, 0.0, 0.0, 0.0, 1.70742690098615E9, 0.0, 2024-02-08 13:15:00.986
53.0, 9318.514244794846, 5882.4325418053195, 5950.906370094046, -4.2877952991984785, -0.04800000227987766, 0.0, 1.0240000486373901, 0.0, 0.0, 0.0, 0.0, 0.0, 1.707426900997324E9, 0.0, 2024-02-08 13:15:00.997
53.0, 9262.602740457281, 5824.961499186233, 5836.745923946612, -76.85681403940544, -0.04800000227987766, 0.0, 1.0240000486373901, 0.0, 0.0, 0.0, 0.0, 0.0, 1.707426900997324E9, 0.0, 2024-02-08 13:15:00.997
54.0, 9415.882540141232, 6015.86843232438, 6060.425600396469, 141.59074237244204, -0.04800000227987766, 0.0, 1.0240000486373901, 0.0, 0.0, 0.0, 0.0, 0.0, 1.707426901013846E9, 0.0, 2024-02-08 13:15:01.013
54.0, 9463.943994471803, 6063.914927055128, 6144.405053901486, 209.73919936502352, -0.04800000227987766, 0.0, 1.0240000486373901, 0.0, 0.0, 0.0, 0.0, 0.0, 1.707426901013846E9, 0.0, 2024-02-08 13:15:01.013
55.0, 9676.772351200227, 6207.64863210218, 6226.606184977572, 288.8474331777543, -0.04800000227987766, 0.0, 1.0240000486373901, 0.0, 0.0, 0.0, 0.0, 0.0, 1.707426901016706E9, 0.0, 2024-02-08 13:15:01.016
55.0, 9880.791373583023, 5983.937166502699, 6019.8252464775, 119.69736803183332, -0.04800000227987766, 0.0, 1.0240000486373901, 0.0, 0.0, 0.0, 0.0, 0.0, 1.707426901016706E9, 0.0, 2024-02-08 13:15:01.016
56.0, 9956.543047185522, 6076.9335188008845, 6144.951079295017, 235.52580955950543, -0.04800000227987766, 0.0, 1.0240000486373901, 0.0, 0.0, 0.0, 0.0, 0.0, 1.707426901027827E9, 0.0, 2024-02-08 13:15:01.027
56.0, 10148.9328506561, 6179.70035973331, 6212.080413549673, 282.51578255277127, -0.04800000227987766, 0.0, 1.0240000486373901, 0.0, 0.0, 0.0, 0.0, 0.0, 1.707426901027827E9, 0.0, 2024-02-08 13:15:01.027
57.0, 10320.620437921956, 6413.608662561979, 6428.388747186866, 62.8621084052138, -0.04800000227987766, 0.0, 1.0240000486373901, 0.0, 0.0, 0.0, 0.0, 0.0, 1.707426901043365E9, 0.0, 2024-02-08 13:15:01.043
57.0, 10419.63054934889, 6537.040320699569, 6580.337142486591, 205.13538251956925, -0.04800000227987766, 0.0, 1.0240000486373901, 0.0, 0.0, 0.0, 0.0, 0.0, 1.707426901043365E9, 0.0, 2024-02-08 13:15:01.043
58.0, 10268.187040543184, 6336.17403397942, 6394.710948085878, -16.943616749253124, -0.04800000227987766, 0.0, 1.0240000486373901, 0.0, 0.0, 0.0, 0.0, 0.0, 1.707426901046673E9, 0.0, 2024-02-08 13:15:01.046
58.0, 10210.151273030788, 6269.71601176681, 6271.241890948731, -93.5816466412507, -0.04800000227987766, 0.0, 1.0240000486373901, 0.0, 0.0, 0.0, 0.0, 0.0, 1.707426901046673E9, 0.0, 2024-02-08 13:15:01.046
59.0, 10352.117875348777, 6458.962429324631, 6479.999366575386, 117.46464775828645, -0.04800000227987766, 0.0, 1.0240000486373901, 0.0, 0.0, 0.0, 0.0, 0.0, 1.707426901057627E9, 0.0, 2024-02-08 13:15:01.057
59.0, 10393.537267358042, 6490.605722849723, 6553.911009399686, 171.3640859196894, -0.04800000227987766, 0.0, 1.0240000486373901, 0.0, 0.0, 0.0, 0.0, 0.0, 1.707426901057627E9, 0.0, 2024-02-08 13:15:01.057
60.0, 10606.60497768363, 6634.245930397883, 6635.091147787869, 248.42285455670208, -0.04800000227987766, 0.0, 1.0240000486373901, 0.0, 0.0, 0.0, 0.0, 0.0, 1.707426901073225E9, 0.0, 2024-02-08 13:15:01.073
60.0, 10824.7720415988, 6421.918720263522, 6438.243383570109, 83.30066166305915, -0.04800000227987766, 0.0, 1.0240000486373901, 0.0, 0.0, 0.0, 0.0, 0.0, 1.707426901073225E9, 0.0, 2024-02-08 13:15:01.073
61.0, 10906.08494643541, 6522.267715874594, 6578.467192508746, 198.94958799285814, -0.04800000227987766, 0.0, 1.0240000486373901, 0.0, 0.0, 0.0, 0.0, 0.0, 1.707426901076156E9, 0.0, 2024-02-08 13:15:01.076
61.0, 11090.385346301831, 6614.910647626966, 6640.689778021537, 233.336098135449, -0.04800000227987766, 0.0, 1.0240000486373901, 0.0, 0.0, 0.0, 0.0, 0.0, 1.707426901076156E9, 0.0, 2024-02-08 13:15:01.076
62.0, 11262.772294859402, 6845.161328298971, 6847.569823870435, 10.185617529321462, -0.04800000227987766, 0.0, 1.0240000486373901, 0.0, 0.0, 0.0, 0.0, 0.0, 1.70742690108788E9, 0.0, 2024-02-08 13:15:01.087
62.0, 11358.124784129672, 6966.734256158583, 6999.35366357211, 145.89536722144112, -0.04800000227987766, 0.0, 1.0240000486373901, 0.0, 0.0, 0.0, 0.0, 0.0, 1.70742690108788E9, 0.0, 2024-02-08 13:15:01.087
63.0, 11213.229840146378, 6764.5552645539865, 6812.149231390096, -80.7238705935888, -0.04800000227987766, 0.0, 1.0240000486373901, 0.0, 0.0, 0.0, 0.0, 0.0, 1.707426901103433E9, 0.0, 2024-02-08 13:15:01.103
63.0, 11161.802475855686, 6708.295949520543, 6706.052009547129, -150.4617850673385, -0.04800000227987766, 0.0, 1.0240000486373901, 0.0, 0.0, 0.0, 0.0, 0.0, 1.707426901103433E9, 0.0, 2024-02-08 13:15:01.103
64.0, 11318.451925399713, 6913.43320199009, 6932.622628662735, 81.38583288574591, -0.04800000227987766, 0.0, 1.0240000486373901, 0.0, 0.0, 0.0, 0.0, 0.0, 1.707426901106518E9, 0.0, 2024-02-08 13:15:01.106
64.0, 11366.18800843414, 6957.0179960737005, 7015.263197983615, 145.33812212804332, -0.04800000227987766, 0.0, 1.0240000486373901, 0.0, 0.0, 0.0, 0.0, 0.0, 1.707426901106518E9, 0.0, 2024-02-08 13:15:01.106
65.0, 11574.233033119235, 7099.124844640028, 7094.883798090275, 222.31087306607515, -0.04800000227987766, 0.0, 1.0240000486373901, 0.0, 0.0, 0.0, 0.0, 0.0, 1.707426901117513E9, 0.0, 2024-02-08 13:15:01.117
65.0, 11808.68362144148, 6905.923482879065, 6918.332470932044, 73.32260858127847, -0.04800000227987766, 0.0, 1.0240000486373901, 0.0, 0.0, 0.0, 0.0, 0.0, 1.707426901117513E9, 0.0, 2024-02-08 13:15:01.117
66.0, 11901.586476240773, 7019.934333028272, 7065.699488786049, 207.49899929156527, -0.04800000227987766, 0.0, 1.0240000486373901, 0.0, 0.0, 0.0, 0.0, 0.0, 1.707426901133154E9, 0.0, 2024-02-08 13:15:01.133
66.0, 12091.081597145647, 7119.612016597297, 7134.680073518772, 246.42574798036367, -0.04800000227987766, 0.0, 1.0240000486373901, 0.0, 0.0, 0.0, 0.0, 0.0, 1.707426901133154E9, 0.0, 2024-02-08 13:15:01.133
67.0, 12275.428745761514, 6878.263182806782, 7357.608030077536, 41.466140758711845, -0.04800000227987766, 0.0, 1.0240000486373901, 0.0, 0.0, 0.0, 0.0, 0.0, 1.707426901136149E9, 0.0, 2024-02-08 13:15:01.136
67.0, 12384.379511270672, 7011.257765131071, 7524.545944399666, 195.19472843734547, -0.04800000227987766, 0.0, 1.0240000486373901, 0.0, 0.0, 0.0, 0.0, 0.0, 1.707426901136149E9, 0.0, 2024-02-08 13:15:01.136
68.0, 12242.23339375481, 6813.697549971752, 7341.537679967936, -30.81864558486268, -0.04800000227987766, 0.0, 1.0240000486373901, 0.0, 0.0, 0.0, 0.0, 0.0, 1.707426901147526E9, 0.0, 2024-02-08 13:15:01.147
68.0, 12189.362428081222, 6760.018765907735, 7229.9241056903265, -100.24614836229011, -0.04800000227987766, 0.0, 1.0240000486373901, 0.0, 0.0, 0.0, 0.0, 0.0, 1.707426901147526E9, 0.0, 2024-02-08 13:15:01.147
69.0, 12353.936725631356, 6967.089546654373, 7465.0815351041965, 130.82731029996648, -0.04800000227987766, 0.0, 1.0240000486373901, 0.0, 0.0, 0.0, 0.0, 0.0, 1.707426901163171E9, 0.0, 2024-02-08 13:15:01.163
69.0, 12398.333078005351, 7019.5640829326585, 7552.165105572436, 203.9348746337928, -0.04800000227987766, 0.0, 1.0240000486373901, 0.0, 0.0, 0.0, 0.0, 0.0, 1.707426901163171E9, 0.0, 2024-02-08 13:15:01.163
70.0, 12607.466413577553, 7150.4811508315615, 7623.681342475116, 269.22043821029365, -0.04800000227987766, 0.0, 1.0240000486373901, 0.0, 0.0, 0.0, 0.0, 0.0, 1.707426901166246E9, 0.0, 2024-02-08 13:15:01.166
70.0, 12831.98008771753, 6960.825214228593, 7441.247152686585, 118.69507484370843, -0.04800000227987766, 0.0, 1.0240000486373901, 0.0, 0.0, 0.0, 0.0, 0.0, 1.707426901166246E9, 0.0, 2024-02-08 13:15:01.166
71.0, 12916.696301513817, 7062.191462627612, 7576.923243279103, 248.63041900424287, -0.04800000227987766, 0.0, 1.0240000486373901, 0.0, 0.0, 0.0, 0.0, 0.0, 1.707426901177583E9, 0.0, 2024-02-08 13:15:01.177
71.0, 13101.535246973857, 7145.308869192842, 7634.5083528468385, 269.59442820586264, -0.04800000227987766, 0.0, 1.0240000486373901, 0.0, 0.0, 0.0, 0.0, 0.0, 1.707426901177583E9, 0.0, 2024-02-08 13:15:01.177
72.0, 13277.030052394606, 7390.07410159288, 7853.116724956781, 57.34949587052688, -0.04800000227987766, 0.0, 1.0240000486373901, 0.0, 0.0, 0.0, 0.0, 0.0, 1.707426901193528E9, 0.0, 2024-02-08 13:15:01.193
72.0, 13377.618401602842, 7511.9013426494785, 8006.325466541573, 200.3370908764191, -0.04800000227987766, 0.0, 1.0240000486373901, 0.0, 0.0, 0.0, 0.0, 0.0, 1.707426901193528E9, 0.0, 2024-02-08 13:15:01.193
73.0, 13225.71862500254, 7305.215771598276, 7816.5629427898675, -34.35659094294533, -0.04800000227987766, 0.0, 1.0240000486373901, 0.0, 0.0, 0.0, 0.0, 0.0, 1.707426901196769E9, 0.0, 2024-02-08 13:15:01.196
73.0, 13166.613246102817, 7242.434071042109, 7695.199449327774, -115.3703037831001, -0.04800000227987766, 0.0, 1.0240000486373901, 0.0, 0.0, 0.0, 0.0, 0.0, 1.707426901196769E9, 0.0, 2024-02-08 13:15:01.196
74.0, 13324.526781831868, 7445.136648640502, 7924.739549008198, 114.10621759807691, -0.04800000227987766, 0.0, 1.0240000486373901, 0.0, 0.0, 0.0, 0.0, 0.0, 1.707426901207713E9, 0.0, 2024-02-08 13:15:01.207
74.0, 13371.073576680385, 7495.4869217439555, 8012.365404970013, 180.00699471728876, -0.04800000227987766, 0.0, 1.0240000486373901, 0.0, 0.0, 0.0, 0.0, 0.0, 1.707426901207713E9, 0.0, 2024-02-08 13:15:01.207
75.0, 13574.810236616526, 7618.426783037372, 8074.075624188874, 245.03450519684702, -0.04800000227987766, 0.0, 1.0240000486373901, 0.0, 0.0, 0.0, 0.0, 0.0, 1.707426901223181E9, 0.0, 2024-02-08 13:15:01.223
75.0, 13812.032090805937, 7435.865436650347, 7899.94775220193, 104.56947271106765, -0.04800000227987766, 0.0, 1.0240000486373901, 0.0, 0.0, 0.0, 0.0, 0.0, 1.707426901223181E9, 0.0, 2024-02-08 13:15:01.223
76.0, 13900.907073352952, 7544.763843560126, 8052.404773895629, 233.13601348781958, -0.04800000227987766, 0.0, 1.0240000486373901, 0.0, 0.0, 0.0, 0.0, 0.0, 1.707426901226159E9, 0.0, 2024-02-08 13:15:01.226
76.0, 14083.270205042325, 7634.306398249231, 8106.130306709092, 258.25879144016653, -0.04800000227987766, 0.0, 1.0240000486373901, 0.0, 0.0, 0.0, 0.0, 0.0, 1.707426901226159E9, 0.0, 2024-02-08 13:15:01.226
77.0, 14266.783355968073, 7394.659218938556, 8331.765950835776, 50.37084255320951, -0.04800000227987766, 0.0, 1.0240000486373901, 0.0, 0.0, 0.0, 0.0, 0.0, 1.707426901237504E9, 0.0, 2024-02-08 13:15:01.237
77.0, 14368.931243457831, 7525.701573485974, 8493.445565820206, 206.35458990512416, -0.04800000227987766, 0.0, 1.0240000486373901, 0.0, 0.0, 0.0, 0.0, 0.0, 1.707426901237504E9, 0.0, 2024-02-08 13:15:01.237
78.0, 14225.090951262042, 7322.898018588778, 8307.142449527513, -29.19926890404895, -0.04800000227987766, 0.0, 1.0240000486373901, 0.0, 0.0, 0.0, 0.0, 0.0, 1.707426901253282E9, 0.0, 2024-02-08 13:15:01.253
78.0, 14158.733906348236, 7256.051046780776, 8191.486043397803, -110.99088093498722, -0.04800000227987766, 0.0, 1.0240000486373901, 0.0, 0.0, 0.0, 0.0, 0.0, 1.707426901253282E9, 0.0, 2024-02-08 13:15:01.253
79.0, 14317.488919567317, 7455.690646315459, 8411.83346898714, 124.10297017963603, -0.04800000227987766, 0.0, 1.0240000486373901, 0.0, 0.0, 0.0, 0.0, 0.0, 1.707426901256203E9, 0.0, 2024-02-08 13:15:01.256
79.0, 14360.467849858105, 7503.946575443726, 8505.517962877173, 185.5532663515769, -0.04800000227987766, 0.0, 1.0240000486373901, 0.0, 0.0, 0.0, 0.0, 0.0, 1.707426901256203E9, 0.0, 2024-02-08 13:15:01.256
80.0, 14569.507687931415, 7631.957741077058, 8566.74573500175, 246.35842978116125, -0.04800000227987766, 0.0, 1.0240000486373901, 0.0, 0.0, 0.0, 0.0, 0.0, 1.707426901267527E9, 0.0, 2024-02-08 13:15:01.267
80.0, 14794.058761070948, 7445.01697184192, 8386.510606387164, 99.0306808766909, -0.04800000227987766, 0.0, 1.0240000486373901, 0.0, 0.0, 0.0, 0.0, 0.0, 1.707426901267527E9, 0.0, 2024-02-08 13:15:01.267
81.0, 14882.369018724654, 7548.533662715461, 8530.825865877327, 224.77359718689695, -0.04800000227987766, 0.0, 1.0240000486373901, 0.0, 0.0, 0.0, 0.0, 0.0, 1.707426901283405E9, 0.0, 2024-02-08 13:15:01.283
81.0, 15058.867987283505, 7627.058472135104, 8582.726327512413, 246.39582878071815, -0.04800000227987766, 0.0, 1.0240000486373901, 0.0, 0.0, 0.0, 0.0, 0.0, 1.707426901283405E9, 0.0, 2024-02-08 13:15:01.283
82.0, 15232.810734222643, 7864.904889617115, 8797.609759266488, 26.865571331698447, -0.04800000227987766, 0.0, 1.0240000486373901, 0.0, 0.0, 0.0, 0.0, 0.0, 1.707426901286766E9, 0.0, 2024-02-08 13:15:01.286
82.0, 15335.65424310416, 8000.0050356164575, 8957.793414268643, 168.98176964791492, -0.04800000227987766, 0.0, 1.0240000486373901, 0.0, 0.0, 0.0, 0.0, 0.0, 1.707426901286766E9, 0.0, 2024-02-08 13:15:01.286
83.0, 15186.06946457643, 7796.053331432864, 8773.057316057384, -55.64036159077659, -0.04800000227987766, 0.0, 1.0240000486373901, 0.0, 0.0, 0.0, 0.0, 0.0, 1.707426901297473E9, 0.0, 2024-02-08 13:15:01.297
83.0, 15122.408887530677, 7733.1519540781155, 8646.745934953913, -137.77604441763833, -0.04800000227987766, 0.0, 1.0240000486373901, 0.0, 0.0, 0.0, 0.0, 0.0, 1.707426901297473E9, 0.0, 2024-02-08 13:15:01.297
84.0, 15287.675066572614, 7937.429029557854, 8881.959462867118, 99.51686787093058, -0.04800000227987766, 0.0, 1.0240000486373901, 0.0, 0.0, 0.0, 0.0, 0.0, 1.707426901313152E9, 0.0, 2024-02-08 13:15:01.313
84.0, 15335.340091507882, 7989.04338884633, 8975.180209162645, 165.17829139297828, -0.04800000227987766, 0.0, 1.0240000486373901, 0.0, 0.0, 0.0, 0.0, 0.0, 1.707426901313152E9, 0.0, 2024-02-08 13:15:01.313
85.0, 15536.219467877876, 8115.891445593443, 9042.548897014465, 225.7328815255314, -0.04800000227987766, 0.0, 1.0240000486373901, 0.0, 0.0, 0.0, 0.0, 0.0, 1.707426901316138E9, 0.0, 2024-02-08 13:15:01.316
85.0, 15761.799013505224, 7932.754154613242, 8865.174791865982, 93.3235935443081, -0.04800000227987766, 0.0, 1.0240000486373901, 0.0, 0.0, 0.0, 0.0, 0.0, 1.707426901316138E9, 0.0, 2024-02-08 13:15:01.316
86.0, 15844.79861322185, 8038.701780457981, 9010.181932847947, 221.43760642642155, -0.04800000227987766, 0.0, 1.0240000486373901, 0.0, 0.0, 0.0, 0.0, 0.0, 1.707426901327642E9, 0.0, 2024-02-08 13:15:01.327
86.0, 16024.48397654295, 8129.070853037294, 9068.088673811872, 252.27869141101837, -0.04800000227987766, 0.0, 1.0240000486373901, 0.0, 0.0, 0.0, 0.0, 0.0, 1.707426901327642E9, 0.0, 2024-02-08 13:15:01.327
87.0, 16201.493441445753, 8368.83957909653, 9287.796576508787, 34.966194635722786, -0.04800000227987766, 0.0, 1.0240000486373901, 0.0, 0.0, 0.0, 0.0, 0.0, 1.707426901343419E9, 0.0, 2024-02-08 13:15:01.343
87.0, 16301.49088646099, 8499.066635453608, 9449.008703998756, 179.22909552650526, -0.04800000227987766, 0.0, 1.0240000486373901, 0.0, 0.0, 0.0, 0.0, 0.0, 1.707426901343419E9, 0.0, 2024-02-08 13:15:01.343
88.0, 16158.286377257667, 8296.659509951714, 9259.623910142574, -38.234867196995765, -0.04800000227987766, 0.0, 1.0240000486373901, 0.0, 0.0, 0.0, 0.0, 0.0, 1.707426901347105E9, 0.0, 2024-02-08 13:15:01.347
88.0, 16096.955757884309, 8231.312238025945, 9145.84493379062, -117.77505945460871, -0.04800000227987766, 0.0, 1.0240000486373901, 0.0, 0.0, 0.0, 0.0, 0.0, 1.707426901347105E9, 0.0, 2024-02-08 13:15:01.347
89.0, 16261.242083137855, 8440.870052243117, 9373.967611387838, 116.09958427445963, -0.04800000227987766, 0.0, 1.0240000486373901, 0.0, 0.0, 0.0, 0.0, 0.0, 1.707426901373851E9, 0.0, 2024-02-08 13:15:01.373
89.0, 16303.544091536663, 8482.84668934578, 9465.894352298696, 172.59451300511137, -0.04800000227987766, 0.0, 1.0240000486373901, 0.0, 0.0, 0.0, 0.0, 0.0, 1.707426901373851E9, 0.0, 2024-02-08 13:15:01.373
90.0, 16510.09689613944, 8610.394107384607, 9528.116937811486, 241.9640473332256, -0.04800000227987766, 0.0, 1.0240000486373901, 0.0, 0.0, 0.0, 0.0, 0.0, 1.707426901376825E9, 0.0, 2024-02-08 13:15:01.376
90.0, 16733.275425995234, 8425.285889127757, 9356.528457894456, 96.19957661023363, -0.04800000227987766, 0.0, 1.0240000486373901, 0.0, 0.0, 0.0, 0.0, 0.0, 1.707426901376825E9, 0.0, 2024-02-08 13:15:01.376
91.0, 16815.03337892657, 8521.247982090805, 9494.414829360787, 214.1971601122059, -0.04800000227987766, 0.0, 1.0240000486373901, 0.0, 0.0, 0.0, 0.0, 0.0, 1.707426901379829E9, 0.0, 2024-02-08 13:15:01.379
91.0, 16993.536933861673, 8612.574469058774, 9554.389735000208, 238.7851323708892, -0.04800000227987766, 0.0, 1.0240000486373901, 0.0, 0.0, 0.0, 0.0, 0.0, 1.707426901379829E9, 0.0, 2024-02-08 13:15:01.379
92.0, 17172.68562153913, 8844.945673005655, 9766.931989382021, 16.124578658957034, -0.04800000227987766, 0.0, 1.0240000486373901, 0.0, 0.0, 0.0, 0.0, 0.0, 1.707426901388564E9, 0.0, 2024-02-08 13:15:01.388
92.0, 17271.83784916438, 8970.961602012627, 9926.464901791885, 153.2367908344604, -0.04800000227987766, 0.0, 1.0240000486373901, 0.0, 0.0, 0.0, 0.0, 0.0, 1.707426901388564E9, 0.0, 2024-02-08 13:15:01.388
93.0, 17123.337641623802, 8779.815315277316, 9746.624332622625, -56.795990677084774, -0.04800000227987766, 0.0, 1.0240000486373901, 0.0, 0.0, 0.0, 0.0, 0.0, 1.707426901403457E9, 0.0, 2024-02-08 13:15:01.403
93.0, 17067.21670288872, 8717.052314220928, 9627.250465936959, -139.9713656916283, -0.04800000227987766, 0.0, 1.0240000486373901, 0.0, 0.0, 0.0, 0.0, 0.0, 1.707426901403457E9, 0.0, 2024-02-08 13:15:01.403
94.0, 17220.073893877678, 8913.041771398857, 9861.248526364565, 85.70167743461207, -0.04800000227987766, 0.0, 1.0240000486373901, 0.0, 0.0, 0.0, 0.0, 0.0, 1.707426901406511E9, 0.0, 2024-02-08 13:15:01.406
94.0, 17263.58015006222, 8957.26608837489, 9948.122662435286, 148.84988818643615, -0.04800000227987766, 0.0, 1.0240000486373901, 0.0, 0.0, 0.0, 0.0, 0.0, 1.707426901406511E9, 0.0, 2024-02-08 13:15:01.406
95.0, 17475.71662529884, 9102.039485609625, 10028.307987435255, 230.15344327315688, -0.04800000227987766, 0.0, 1.0240000486373901, 0.0, 0.0, 0.0, 0.0, 0.0, 1.707426901417541E9, 0.0, 2024-02-08 13:15:01.417
95.0, 17703.929060494993, 8906.949474371038, 9851.22185458336, 78.80904181627557, -0.04800000227987766, 0.0, 1.0240000486373901, 0.0, 0.0, 0.0, 0.0, 0.0, 1.707426901417541E9, 0.0, 2024-02-08 13:15:01.417
96.0, 17794.681472819764, 9015.07372198999, 10000.24190821778, 203.73292003618553, -0.04800000227987766, 0.0, 1.0240000486373901, 0.0, 0.0, 0.0, 0.0, 0.0, 1.707426901432925E9, 0.0, 2024-02-08 13:15:01.432
96.0, 17989.184319765307, 9129.606288183015, 10079.380061230157, 257.312596751377, -0.04800000227987766, 0.0, 1.0240000486373901, 0.0, 0.0, 0.0, 0.0, 0.0, 1.707426901432925E9, 0.0, 2024-02-08 13:15:01.432
97.0, 18164.637986286543, 9369.711605238263, 10304.073250568006, 38.257306596729904, -0.04800000227987766, 0.0, 1.0240000486373901, 0.0, 0.0, 0.0, 0.0, 0.0, 1.707426901448086E9, 0.0, 2024-02-08 13:15:01.448
97.0, 18262.03246093262, 9493.651889769826, 10465.835143351462, 180.848472207319, -0.04800000227987766, 0.0, 1.0240000486373901, 0.0, 0.0, 0.0, 0.0, 0.0, 1.707426901448086E9, 0.0, 2024-02-08 13:15:01.448
98.0, 18134.647728541866, 9319.69044333091, 10300.830757306423, -21.031327400822192, -0.04800000227987766, 0.0, 1.0240000486373901, 0.0, 0.0, 0.0, 0.0, 0.0, 1.707426901451076E9, 0.0, 2024-02-08 13:15:01.451
98.0, 18079.77965629194, 9266.774598857854, 10189.407917926554, -95.28330112108961, -0.04800000227987766, 0.0, 1.0240000486373901, 0.0, 0.0, 0.0, 0.0, 0.0, 1.707426901451076E9, 0.0, 2024-02-08 13:15:01.451
99.0, 18224.424026978202, 9439.056830216665, 10406.651226552669, 107.89050387172028, -0.04800000227987766, 0.0, 1.0240000486373901, 0.0, 0.0, 0.0, 0.0, 0.0, 1.707426901464272E9, 0.0, 2024-02-08 13:15:01.464
99.0, 18262.219455930404, 9476.35485247476, 10491.187925151084, 163.60005361167714, -0.04800000227987766, 0.0, 1.0240000486373901, 0.0, 0.0, 0.0, 0.0, 0.0, 1.707426901464272E9, 0.0, 2024-02-08 13:15:01.464
100.0, 18484.236746849958, 9634.775144647807, 10578.396782267839, 263.0832623830065, -0.04800000227987766, 0.0, 1.0240000486373901, 0.0, 0.0, 0.0, 0.0, 0.0, 1.70742690146754E9, 0.0, 2024-02-08 13:15:01.467
100.0, 18697.519501422998, 9425.77644547401, 10391.69910652982, 98.71652928041294, -0.04800000227987766, 0.0, 1.0240000486373901, 0.0, 0.0, 0.0, 0.0, 0.0, 1.70742690146754E9, 0.0, 2024-02-08 13:15:01.467
0.0, 146.79107326082885, 195.14236983796582, 223.80870299832895, 203.44120783964172, -0.04800000227987766, 0.0, 1.0240000486373901, 0.0, 0.0, 0.0, 0.0, 0.0, 1.707426901478481E9, 0.0, 2024-02-08 13:15:01.478
1.0, 362.35703675681725, 331.69546697009355, 322.5925504779443, 274.70687144529074, -0.04800000227987766, 0.0, 1.0240000486373901, 0.0, 0.0, 0.0, 0.0, 0.0, 1.707426901481262E9, 0.0, 2024-02-08 13:15:01.481
1.0, 521.7141738687642, 558.5951972818002, 525.6167594725266, 45.3369372128509, -0.04800000227987766, 0.0, 1.0240000486373901, 0.0, 0.0, 0.0, 0.0, 0.0, 1.707426901481262E9, 0.0, 2024-02-08 13:15:01.481
2.0, 619.4377597109415, 673.522322920151, 680.5346353370696, 183.0325737814419, -0.04800000227987766, 0.0, 1.0240000486373901, 0.0, 0.0, 0.0, 0.0, 0.0, 1.707426901492772E9, 0.0, 2024-02-08 13:15:01.492
2.0, 498.8559053395875, 509.8306417595595, 524.8201607819647, -3.42387840943411, -0.04800000227987766, 0.0, 1.0240000486373901, 0.0, 0.0, 0.0, 0.0, 0.0, 1.707426901492772E9, 0.0, 2024-02-08 13:15:01.492
3.0, 448.29245793865994, 459.5589065551758, 412.01355841849, -73.6442399774678, -0.04800000227987766, 0.0, 1.0240000486373901, 0.0, 0.0, 0.0, 0.0, 0.0, 1.707426901508144E9, 0.0, 2024-02-08 13:15:01.508
3.0, 593.7371672154404, 641.549918198958, 625.1167977936566, 141.98717176774517, -0.04800000227987766, 0.0, 1.0240000486373901, 0.0, 0.0, 0.0, 0.0, 0.0, 1.707426901508144E9, 0.0, 2024-02-08 13:15:01.508
4.0, 636.7198374061845, 679.15461225342, 710.9213224770501, 208.4489338803105, -0.04800000227987766, 0.0, 1.0240000486373901, 0.0, 0.0, 0.0, 0.0, 0.0, 1.707426901511184E9, 0.0, 2024-02-08 13:15:01.511
4.0, 878.2893252940848, 864.9060933026485, 818.6248313509859, 322.79450507555157, -0.04800000227987766, 0.0, 1.0240000486373901, 0.0, 0.0, 0.0, 0.0, 0.0, 1.707426901511184E9, 0.0, 2024-02-08 13:15:01.511
5.0, 1090.9138574749231, 639.4742737235501, 618.2765207746997, 151.5014772550203, -0.04800000227987766, 0.0, 1.0240000486373901, 0.0, 0.0, 0.0, 0.0, 0.0, 1.707426901522372E9, 0.0, 2024-02-08 13:15:01.522
5.0, 1165.1508715953678, 726.0940965972841, 748.9561050264165, 268.7436009659432, -0.04800000227987766, 0.0, 1.0240000486373901, 0.0, 0.0, 0.0, 0.0, 0.0, 1.707426901522372E9, 0.0, 2024-02-08 13:15:01.522
6.0, 1394.6180432266556, 898.3707181061618, 867.0303564774804, 367.4302110467106, -0.04800000227987766, 0.0, 1.0240000486373901, 0.0, 0.0, 0.0, 0.0, 0.0, 1.707426901538656E9, 0.0, 2024-02-08 13:15:01.538
6.0, 1550.3063384820707, 1104.7795365606435, 1059.3509717988782, 135.98089243890718, -0.04800000227987766, 0.0, 1.0240000486373901, 0.0, 0.0, 0.0, 0.0, 0.0, 1.707426901538656E9, 0.0, 2024-02-08 13:15:01.538
7.0, 1639.3234372274019, 1216.43050983781, 1202.9893093970604, 276.9302419689484, -0.04800000227987766, 0.0, 1.0240000486373901, 0.0, 0.0, 0.0, 0.0, 0.0, 1.707426901541381E9, 0.0, 2024-02-08 13:15:01.541
7.0, 1515.1886778981425, 1058.2252619122155, 1043.781768283341, 96.16965741058812, -0.04800000227987766, 0.0, 1.0240000486373901, 0.0, 0.0, 0.0, 0.0, 0.0, 1.707426901541381E9, 0.0, 2024-02-08 13:15:01.541
8.0, 1460.6160577447154, 1006.1808141288348, 931.9961586077698, 29.15065020462498, -0.04800000227987766, 0.0, 1.0240000486373901, 0.0, 0.0, 0.0, 0.0, 0.0, 1.70742690155272E9, 0.0, 2024-02-08 13:15:01.552
8.0, 1595.6601052447222, 1178.0329569927417, 1135.0876858015545, 246.59217352839187, -0.04800000227987766, 0.0, 1.0240000486373901, 0.0, 0.0, 0.0, 0.0, 0.0, 1.70742690155272E9, 0.0, 2024-02-08 13:15:01.552
9.0, 1640.3145107156597, 1220.7014755872078, 1220.338705291506, 319.6585989627056, -0.04800000227987766, 0.0, 1.0240000486373901, 0.0, 0.0, 0.0, 0.0, 0.0, 1.707426901568359E9, 0.0, 2024-02-08 13:15:01.568
9.0, 1398.1971274842508, 1421.8800439536572, 1338.5812522405759, 446.60763300862163, -0.04800000227987766, 0.0, 1.0240000486373901, 0.0, 0.0, 0.0, 0.0, 0.0, 1.707426901568359E9, 0.0, 2024-02-08 13:15:01.568
10.0, 1598.5473080105148, 1192.4689708217047, 1131.0186746497639, 274.83963789371774, -0.04800000227987766, 0.0, 1.0240000486373901, 0.0, 0.0, 0.0, 0.0, 0.0, 1.707426901571139E9, 0.0, 2024-02-08 13:15:01.571
10.0, 1675.8809592942707, 1283.4644766435958, 1258.3847075407393, 403.4660170697607, -0.04800000227987766, 0.0, 1.0240000486373901, 0.0, 0.0, 0.0, 0.0, 0.0, 1.707426901571139E9, 0.0, 2024-02-08 13:15:01.571
11.0, 1914.7427596142516, 1467.9256922081113, 1394.9527642726898, 517.6058937674388, -0.04800000227987766, 0.0, 1.0240000486373901, 0.0, 0.0, 0.0, 0.0, 0.0, 1.707426901582352E9, 0.0, 2024-02-08 13:15:01.582
11.0, 2073.5576112326235, 1676.4999127369374, 1592.5092395320535, 280.0680180317722, -0.04800000227987766, 0.0, 1.0240000486373901, 0.0, 0.0, 0.0, 0.0, 0.0, 1.707426901582352E9, 0.0, 2024-02-08 13:15:01.582
12.0, 2174.0711624417454, 1796.5133023150265, 1749.917888767086, 437.09893737128004, -0.04800000227987766, 0.0, 1.0240000486373901, 0.0, 0.0, 0.0, 0.0, 0.0, 1.707426901598074E9, 0.0, 2024-02-08 13:15:01.598
12.0, 2071.4819667572156, 1655.6237911842763, 1619.193425715901, 283.39278909238055, -0.04800000227987766, 0.0, 1.0240000486373901, 0.0, 0.0, 0.0, 0.0, 0.0, 1.707426901598074E9, 0.0, 2024-02-08 13:15:01.598
13.0, 2022.294802539982, 1621.9497319832444, 1523.8147571459413, 238.97773721860722, -0.04800000227987766, 0.0, 1.0240000486373901, 0.0, 0.0, 0.0, 0.0, 0.0, 1.707426901601061E9, 0.0, 2024-02-08 13:15:01.601
13.0, 2174.594748435542, 1814.9323095967993, 1750.1011438649148, -2.733866867609322, -0.04800000227987766, 0.0, 1.0240000486373901, 0.0, 0.0, 0.0, 0.0, 0.0, 1.707426901601061E9, 0.0, 2024-02-08 13:15:01.601
14.0, 2238.539557877928, 1883.3238600865006, 1856.123567708768, 118.25189669895917, -0.04800000227987766, 0.0, 1.0240000486373901, 0.0, 0.0, 0.0, 0.0, 0.0, 1.707426901612712E9, 0.0, 2024-02-08 13:15:01.612
14.0, 2016.4268995095044, 2126.060196760576, 2006.9930018712766, 286.9718733499758, -0.04800000227987766, 0.0, 1.0240000486373901, 0.0, 0.0, 0.0, 0.0, 0.0, 1.707426901612712E9, 0.0, 2024-02-08 13:15:01.612
15.0, 2231.2991115637124, 1916.9380808882415, 1809.834825957194, 164.05445145629346, -0.04800000227987766, 0.0, 1.0240000486373901, 0.0, 0.0, 0.0, 0.0, 0.0, 1.707426901628104E9, 0.0, 2024-02-08 13:15:01.628
15.0, 2309.6911545349285, 2024.1460530180484, 1945.697911547497, 320.0793377077207, -0.04800000227987766, 0.0, 1.0240000486373901, 0.0, 0.0, 0.0, 0.0, 0.0, 1.707426901628104E9, 0.0, 2024-02-08 13:15:01.628
16.0, 2545.3179413932376, 2226.3530938723125, 2084.5435673524626, 440.9024156262167, -0.04800000227987766, 0.0, 1.0240000486373901, 0.0, 0.0, 0.0, 0.0, 0.0, 1.707426901631168E9, 0.0, 2024-02-08 13:15:01.631
16.0, 2682.1309615722857, 2412.4505156674422, 2251.3992038755678, 669.3654241194017, -0.04800000227987766, 0.0, 1.0240000486373901, 0.0, 0.0, 0.0, 0.0, 0.0, 1.707426901631168E9, 0.0, 2024-02-08 13:15:01.631
17.0, 2741.2176409722306, 2487.121358182747, 2361.3934014723636, 773.7385520827956, -0.04800000227987766, 0.0, 1.0240000486373901, 0.0, 0.0, 0.0, 0.0, 0.0, 1.707426901642537E9, 0.0, 2024-02-08 13:15:01.642
17.0, 2605.276017482858, 2319.65985786682, 2203.767838039901, 577.5994989066385, -0.04800000227987766, 0.0, 1.0240000486373901, 0.0, 0.0, 0.0, 0.0, 0.0, 1.707426901642537E9, 0.0, 2024-02-08 13:15:01.642
18.0, 2564.559726665262, 2287.8968875431456, 2107.117603485007, 532.0998760457151, -0.04800000227987766, 0.0, 1.0240000486373901, 0.0, 0.0, 0.0, 0.0, 0.0, 1.707426901658147E9, 0.0, 2024-02-08 13:15:01.658
18.0, 2726.729268543888, 2512.8892688774504, 2345.394109461922, 312.53595949709415, -0.04800000227987766, 0.0, 1.0240000486373901, 0.0, 0.0, 0.0, 0.0, 0.0, 1.707426901658147E9, 0.0, 2024-02-08 13:15:01.658
19.0, 2788.7966482085176, 2585.6041437159292, 2461.719957683701, 429.9875176055357, -0.04800000227987766, 0.0, 1.0240000486373901, 0.0, 0.0, 0.0, 0.0, 0.0, 1.707426901661146E9, 0.0, 2024-02-08 13:15:01.661
19.0, 2587.4441744941287, 2353.588230264839, 2627.492893169634, 634.4197989334352, -0.04800000227987766, 0.0, 1.0240000486373901, 0.0, 0.0, 0.0, 0.0, 0.0, 1.707426901661146E9, 0.0, 2024-02-08 13:15:01.661
20.0, 2773.8407882857136, 2113.847553455271, 2417.409623008687, 437.4747973168269, -0.04800000227987766, 0.0, 1.0240000486373901, 0.0, 0.0, 0.0, 0.0, 0.0, 1.707426901672462E9, 0.0, 2024-02-08 13:15:01.672
20.0, 2796.7214962146245, 2134.0430132159963, 2496.1868756753393, 414.6875868868083, -0.04800000227987766, 0.0, 1.0240000486373901, 0.0, 0.0, 0.0, 0.0, 0.0, 1.707426901672462E9, 0.0, 2024-02-08 13:15:01.672
21.0, 3004.313993005082, 2257.667276201304, 2592.008722390048, 376.664024037309, -0.04800000227987766, 0.0, 1.0240000486373901, 0.0, 0.0, 0.0, 0.0, 0.0, 1.707426901688362E9, 0.0, 2024-02-08 13:15:01.688
21.0, 3070.9889294151217, 2330.236294941511, 2696.034039657563, 375.0670867562294, -0.04800000227987766, 0.0, 1.0240000486373901, 0.0, 0.0, 0.0, 0.0, 0.0, 1.707426901688362E9, 0.0, 2024-02-08 13:15:01.688
22.0, 3071.190884012729, 2301.0089767877944, 2745.4904766716063, 263.6853862758726, -0.04800000227987766, 0.0, 1.0240000486373901, 0.0, 0.0, 0.0, 0.0, 0.0, 1.707426901691465E9, 0.0, 2024-02-08 13:15:01.691
22.0, 2867.848783521913, 2502.486737150699, 2990.4595336192288, 328.38004565937445, -0.04800000227987766, 0.0, 1.0240000486373901, 0.0, 0.0, 0.0, 0.0, 0.0, 1.707426901691465E9, 0.0, 2024-02-08 13:15:01.691
23.0, 2731.529430137016, 2314.2126935813576, 2783.194278074894, 527.3258937522769, -0.04800000227987766, 0.0, 1.0240000486373901, 0.0, 0.0, 0.0, 0.0, 0.0, 1.707426901702807E9, 0.0, 2024-02-08 13:15:01.702
23.0, 2807.845828632824, 2368.0373337436467, 2912.194647246506, 597.7594296177849, -0.04800000227987766, 0.0, 1.0240000486373901, 0.0, 0.0, 0.0, 0.0, 0.0, 1.707426901702807E9, 0.0, 2024-02-08 13:15:01.702
24.0, 2820.07530148793, 2344.0757947275415, 2949.387952305842, 597.673411918804, -0.04800000227987766, 0.0, 1.0240000486373901, 0.0, 0.0, 0.0, 0.0, 0.0, 1.707426901718232E9, 0.0, 2024-02-08 13:15:01.718
24.0, 2594.6827508583665, 2533.35026153503, 3069.0741006378084, 730.3931115963496, -0.04800000227987766, 0.0, 1.0240000486373901, 0.0, 0.0, 0.0, 0.0, 0.0, 1.707426901718232E9, 0.0, 2024-02-08 13:15:01.718
25.0, 2802.7969636926427, 2773.2050052932464, 2847.59909521183, 592.4001529812813, -0.04800000227987766, 0.0, 1.0240000486373901, 0.0, 0.0, 0.0, 0.0, 0.0, 1.707426901720984E9, 0.0, 2024-02-08 13:15:01.720
25.0, 2872.6208958653733, 2829.3708228277974, 2960.9853820684366, 726.8832154879346, -0.04800000227987766, 0.0, 1.0240000486373901, 0.0, 0.0, 0.0, 0.0, 0.0, 1.707426901720984E9, 0.0, 2024-02-08 13:15:01.720
26.0, 3087.1883060731925, 2966.877594448626, 3057.824481571093, 803.4857163303532, -0.04800000227987766, 0.0, 1.0240000486373901, 0.0, 0.0, 0.0, 0.0, 0.0, 1.707426901732309E9, 0.0, 2024-02-08 13:15:01.732
26.0, 3185.1288061128, 3065.1172864846885, 3169.385697249323, 981.8415452172048, -0.04800000227987766, 0.0, 1.0240000486373901, 0.0, 0.0, 0.0, 0.0, 0.0, 1.707426901732309E9, 0.0, 2024-02-08 13:15:01.732
27.0, 3237.5958625911735, 3108.0064591765404, 3273.2576786186546, 1074.3105716216378, -0.04800000227987766, 0.0, 1.0240000486373901, 0.0, 0.0, 0.0, 0.0, 0.0, 1.707426901748113E9, 0.0, 2024-02-08 13:15:01.748
27.0, 3118.1509378063492, 2940.6646356591955, 3112.1203491277993, 884.1104795751162, -0.04800000227987766, 0.0, 1.0240000486373901, 0.0, 0.0, 0.0, 0.0, 0.0, 1.707426901748113E9, 0.0, 2024-02-08 13:15:01.748
28.0, 3071.6565015572123, 2895.1014344990253, 2999.721395859495, 806.4252776955254, -0.04800000227987766, 0.0, 1.0240000486373901, 0.0, 0.0, 0.0, 0.0, 0.0, 1.707426901751099E9, 0.0, 2024-02-08 13:15:01.751
28.0, 3226.6790946205147, 3080.563073301688, 3220.8205413399264, 1029.323315054644, -0.04800000227987766, 0.0, 1.0240000486373901, 0.0, 0.0, 0.0, 0.0, 0.0, 1.707426901751099E9, 0.0, 2024-02-08 13:15:01.751
29.0, 3279.6996562923305, 3132.637440284714, 3321.1246581515297, 1099.7942499197088, -0.04800000227987766, 0.0, 1.0240000486373901, 0.0, 0.0, 0.0, 0.0, 0.0, 1.707426901762469E9, 0.0, 2024-02-08 13:15:01.762
29.0, 3054.654916358646, 3363.5818723984994, 3459.7010411596857, 1217.685246272944, -0.04800000227987766, 0.0, 1.0240000486373901, 0.0, 0.0, 0.0, 0.0, 0.0, 1.707426901762469E9, 0.0, 2024-02-08 13:15:01.762
30.0, 3262.2717224988155, 3135.060895456001, 3256.140156521462, 1041.3246540124528, -0.04800000227987766, 0.0, 1.0240000486373901, 0.0, 0.0, 0.0, 0.0, 0.0, 1.707426901778497E9, 0.0, 2024-02-08 13:15:01.778
30.0, 3350.9148312485777, 3232.3020342038944, 3394.221002785489, 1168.2418989087455, -0.04800000227987766, 0.0, 1.0240000486373901, 0.0, 0.0, 0.0, 0.0, 0.0, 1.707426901778497E9, 0.0, 2024-02-08 13:15:01.778
31.0, 3119.1981097939424, 3439.146551003214, 3539.2786324168555, 1268.9256155658513, -0.04800000227987766, 0.0, 1.0240000486373901, 0.0, 0.0, 0.0, 0.0, 0.0, 1.707426901781932E9, 0.0, 2024-02-08 13:15:01.781
31.0, 3280.2793407854624, 3645.95927865291, 3735.4102057931013, 1031.9674243233167, -0.04800000227987766, 0.0, 1.0240000486373901, 0.0, 0.0, 0.0, 0.0, 0.0, 1.707426901781932E9, 0.0, 2024-02-08 13:15:01.781
32.0, 3392.061210561078, 3776.2947921087034, 3897.5498284720816, 1229.0788514879532, -0.06400000303983688, 0.0, 1.0240000486373901, 0.0, 0.0, 0.0, 0.0, 0.0, 1.70742690179277E9, 0.0, 2024-02-08 13:15:01.792
32.0, 3303.5527382097207, 3664.0080358390696, 3774.731513927225, 1093.9749655886553, -0.06400000303983688, 0.0, 1.0240000486373901, 0.0, 0.0, 0.0, 0.0, 0.0, 1.70742690179277E9, 0.0, 2024-02-08 13:15:01.792
33.0, 3266.209837152157, 3639.5004714294337, 3673.182010430377, 1060.82449238142, -0.06400000303983688, 0.0, 1.0240000486373901, 0.0, 0.0, 0.0, 0.0, 0.0, 1.707426901808153E9, 0.0, 2024-02-08 13:15:01.808
33.0, 3416.434138572309, 3825.579193724785, 3894.744903505314, 816.5921957250684, -0.06400000303983688, 0.0, 1.0240000486373901, 0.0, 0.0, 0.0, 0.0, 0.0, 1.707426901808153E9, 0.0, 2024-02-08 13:15:01.808
34.0, 3464.690067700576, 3874.844895841088, 3985.381378931459, 901.5702025182545, -0.06400000303983688, 0.0, 1.0240000486373901, 0.0, 0.0, 0.0, 0.0, 0.0, 1.707426901811005E9, 0.0, 2024-02-08 13:15:01.811
34.0, 3231.8438964593224, 4091.5964076230302, 4118.542386803776, 1012.9350734488107, -0.06400000303983688, 0.0, 1.0240000486373901, 0.0, 0.0, 0.0, 0.0, 0.0, 1.707426901811005E9, 0.0, 2024-02-08 13:15:01.811
35.0, 3429.5163086173125, 3850.2625334323384, 3905.5457345773466, 835.1308798054233, -0.06400000303983688, 0.0, 1.0240000486373901, 0.0, 0.0, 0.0, 0.0, 0.0, 1.707426901822522E9, 0.0, 2024-02-08 13:15:01.822
35.0, 3499.5496751875617, 3921.518847288098, 4029.175607412588, 951.6025841254741, -0.06400000303983688, 0.0, 1.0240000486373901, 0.0, 0.0, 0.0, 0.0, 0.0, 1.707426901822522E9, 0.0, 2024-02-08 13:15:01.822
36.0, 3742.32715076115, 4109.200116714463, 4162.3291354849935, 1028.249963767361, -0.06400000303983688, 0.0, 1.0240000486373901, 0.0, 0.0, 0.0, 0.0, 0.0, 1.707426901838163E9, 0.0, 2024-02-08 13:15:01.838
36.0, 3885.060432570055, 4296.228773598559, 4338.369966299273, 1252.6626606085338, -0.06400000303983688, 0.0, 1.0240000486373901, 0.0, 0.0, 0.0, 0.0, 0.0, 1.707426901838163E9, 0.0, 2024-02-08 13:15:01.838
37.0, 3971.175368949771, 4393.559669945389, 4482.049442796968, 1396.5702710035257, -0.06400000303983688, 0.0, 1.0240000486373901, 0.0, 0.0, 0.0, 0.0, 0.0, 1.707426901841208E9, 0.0, 2024-02-08 13:15:01.841
37.0, 3862.650952035561, 4254.521409292705, 4343.489889338613, 1228.345831096638, -0.06400000303983688, 0.0, 1.0240000486373901, 0.0, 0.0, 0.0, 0.0, 0.0, 1.707426901841208E9, 0.0, 2024-02-08 13:15:01.841
38.0, 3808.9160694722086, 4201.149297025055, 4224.639608646743, 1147.2311409576796, -0.06400000303983688, 0.0, 1.0240000486373901, 0.0, 0.0, 0.0, 0.0, 0.0, 1.707426901852923E9, 0.0, 2024-02-08 13:15:01.852
38.0, 3938.125873041339, 4356.931089779362, 4418.598300148733, 1346.8370813927613, -0.06400000303983688, 0.0, 1.0240000486373901, 0.0, 0.0, 0.0, 0.0, 0.0, 1.707426901852923E9, 0.0, 2024-02-08 13:15:01.852
39.0, 3961.0140607701614, 4372.193621498533, 4487.558315431699, 1393.7840455365367, -0.06400000303983688, 0.0, 1.0240000486373901, 0.0, 0.0, 0.0, 0.0, 0.0, 1.707426901868516E9, 0.0, 2024-02-08 13:15:01.868
39.0, 3718.144957647659, 4568.080231427681, 4602.17315942375, 1484.6168657103553, -0.06400000303983688, 0.0, 1.0240000486373901, 0.0, 0.0, 0.0, 0.0, 0.0, 1.707426901868516E9, 0.0, 2024-02-08 13:15:01.868
40.0, 3896.38858953584, 4792.298453471158, 4368.891289837658, 1290.880698255729, -0.06400000303983688, 0.0, 1.0240000486373901, 0.0, 0.0, 0.0, 0.0, 0.0, 1.707426901871758E9, 0.0, 2024-02-08 13:15:01.871
40.0, 3960.3857575776055, 4842.024163282011, 4474.816476282664, 1383.9331490532495, -0.06400000303983688, 0.0, 1.0240000486373901, 0.0, 0.0, 0.0, 0.0, 0.0, 1.707426901871758E9, 0.0, 2024-02-08 13:15:01.871
41.0, 4192.392321278807, 5016.189434268512, 4594.005217920523, 1457.7232451289892, -0.06400000303983688, 0.0, 1.0240000486373901, 0.0, 0.0, 0.0, 0.0, 0.0, 1.707426901882463E9, 0.0, 2024-02-08 13:15:01.882
41.0, 4332.922802013811, 5194.698599053547, 4759.899700155016, 1212.7841073810123, -0.06400000303983688, 0.0, 1.0240000486373901, 0.0, 0.0, 0.0, 0.0, 0.0, 1.707426901882463E9, 0.0, 2024-02-08 13:15:01.882
42.0, 4419.325710690115, 5295.215890162624, 4907.132081610616, 1352.7049844232388, -0.04800000227987766, 0.0, 1.0240000486373901, 0.0, 0.0, 0.0, 0.0, 0.0, 1.707426901898035E9, 0.0, 2024-02-08 13:15:01.898
42.0, 4308.205803206656, 5150.75477457419, 4763.594721311238, 1187.629540279042, -0.04800000227987766, 0.0, 1.0240000486373901, 0.0, 0.0, 0.0, 0.0, 0.0, 1.707426901898035E9, 0.0, 2024-02-08 13:15:01.898
43.0, 4252.4326751674525, 5090.344170589931, 4645.339084712323, 1114.0133495512418, -0.04800000227987766, 0.0, 1.0240000486373901, 0.0, 0.0, 0.0, 0.0, 0.0, 1.707426901901241E9, 0.0, 2024-02-08 13:15:01.901
43.0, 4388.67349065328, 5262.607702448964, 4845.640646539163, 1344.911032915581, -0.04800000227987766, 0.0, 1.0240000486373901, 0.0, 0.0, 0.0, 0.0, 0.0, 1.707426901901241E9, 0.0, 2024-02-08 13:15:01.901
44.0, 4424.61392922746, 5291.576967505738, 4920.539622951765, 1406.0845764908008, -0.04800000227987766, 0.0, 1.0240000486373901, 0.0, 0.0, 0.0, 0.0, 0.0, 1.707426901928932E9, 0.0, 2024-02-08 13:15:01.928
44.0, 4182.343210097868, 5499.666870990302, 5041.8488878645, 1499.6811827318743, -0.04800000227987766, 0.0, 1.0240000486373901, 0.0, 0.0, 0.0, 0.0, 0.0, 1.707426901928932E9, 0.0, 2024-02-08 13:15:01.928
45.0, 4364.633413738105, 5728.851680174936, 4814.505979408044, 1302.493087618146, -0.04800000227987766, 0.0, 1.0240000486373901, 0.0, 0.0, 0.0, 0.0, 0.0, 1.707426901932089E9, 0.0, 2024-02-08 13:15:01.932
45.0, 4426.614775703754, 5781.789964047726, 4923.617560615297, 1378.151263721753, -0.04800000227987766, 0.0, 1.0240000486373901, 0.0, 0.0, 0.0, 0.0, 0.0, 1.707426901932089E9, 0.0, 2024-02-08 13:15:01.932
46.0, 4664.190050438978, 5967.178674801253, 5058.27452846989, 1428.0994975799695, -0.04800000227987766, 0.0, 1.0240000486373901, 0.0, 0.0, 0.0, 0.0, 0.0, 1.707426901935E9, 0.0, 2024-02-08 13:15:01.935
46.0, 4812.151712385938, 6155.998743764125, 5236.877190753818, 1187.3228684826754, -0.04800000227987766, 0.0, 1.0240000486373901, 0.0, 0.0, 0.0, 0.0, 0.0, 1.707426901935E9, 0.0, 2024-02-08 13:15:01.935
47.0, 4911.827526004985, 6272.679882481694, 5390.807733030058, 1356.055934783537, -0.04800000227987766, 0.0, 1.0240000486373901, 0.0, 0.0, 0.0, 0.0, 0.0, 1.707426901942748E9, 0.0, 2024-02-08 13:15:01.942
47.0, 4808.931658524089, 6132.85250293836, 5253.415028357878, 1181.6905791494064, -0.04800000227987766, 0.0, 1.0240000486373901, 0.0, 0.0, 0.0, 0.0, 0.0, 1.707426901942748E9, 0.0, 2024-02-08 13:15:01.942
48.0, 4754.557253068313, 6090.240082843229, 5138.551481018774, 1098.5451233345084, -0.04800000227987766, 0.0, 1.0240000486373901, 0.0, 0.0, 0.0, 0.0, 0.0, 1.707426901958538E9, 0.0, 2024-02-08 13:15:01.958
48.0, 4900.667664537206, 6270.084391912445, 5351.310649598017, 1340.8046227642335, -0.04800000227987766, 0.0, 1.0240000486373901, 0.0, 0.0, 0.0, 0.0, 0.0, 1.707426901958538E9, 0.0, 2024-02-08 13:15:01.958
49.0, 4952.068849528208, 6322.465430691838, 5445.170918785967, 1440.3906787843443, -0.04800000227987766, 0.0, 1.0240000486373901, 0.0, 0.0, 0.0, 0.0, 0.0, 1.707426901961269E9, 0.0, 2024-02-08 13:15:01.961
49.0, 4732.039315435104, 6552.82269851258, 5582.04938721424, 1561.2100168028846, -0.04800000227987766, 0.0, 1.0240000486373901, 0.0, 0.0, 0.0, 0.0, 0.0, 1.707426901961269E9, 0.0, 2024-02-08 13:15:01.961
50.0, 4944.970519412309, 6330.47255649697, 5384.337706106715, 1424.1146341771819, -0.04800000227987766, 0.0, 1.0240000486373901, 0.0, 0.0, 0.0, 0.0, 0.0, 1.707426901972466E9, 0.0, 2024-02-08 13:15:01.972
50.0, 5028.074836327694, 6418.311586756259, 5515.589495051652, 1576.8035296681337, -0.04800000227987766, 0.0, 1.0240000486373901, 0.0, 0.0, 0.0, 0.0, 0.0, 1.707426901972466E9, 0.0, 2024-02-08 13:15:01.972
51.0, 4800.3336285259575, 6646.181821106467, 5680.79396574432, 1702.9110862240195, -0.04800000227987766, 0.0, 1.0240000486373901, 0.0, 0.0, 0.0, 0.0, 0.0, 1.707426901988151E9, 0.0, 2024-02-08 13:15:01.988
51.0, 4962.521869904362, 6858.3500854927115, 5878.3915799031965, 1492.8539953627624, -0.04800000227987766, 0.0, 1.0240000486373901, 0.0, 0.0, 0.0, 0.0, 0.0, 1.707426901988151E9, 0.0, 2024-02-08 13:15:01.988
52.0, 5060.888718538918, 6984.736264595296, 6036.376173731405, 1661.6730793626048, -0.04800000227987766, 0.0, 1.0240000486373901, 0.0, 0.0, 0.0, 0.0, 0.0, 1.70742690199127E9, 0.0, 2024-02-08 13:15:01.991
52.0, 4991.498614761047, 6905.427946134936, 5949.543176560197, 1529.3217598306946, -0.04800000227987766, 0.0, 1.0240000486373901, 0.0, 0.0, 0.0, 0.0, 0.0, 1.70742690199127E9, 0.0, 2024-02-08 13:15:01.991
53.0, 4894.867079705931, 6796.1293699298985, 5784.7631845125, 1388.67908209702, -0.04800000227987766, 0.0, 1.0240000486373901, 0.0, 0.0, 0.0, 0.0, 0.0, 1.70742690200239E9, 0.0, 2024-02-08 13:15:02.002
53.0, 5003.391496620141, 6919.317934570368, 5952.774450121913, 1585.1061075697653, -0.04800000227987766, 0.0, 1.0240000486373901, 0.0, 0.0, 0.0, 0.0, 0.0, 1.70742690200239E9, 0.0, 2024-02-08 13:15:02.002
54.0, 5028.830296118744, 6947.83841163246, 6025.4107870613225, 1655.3414287376218, -0.04800000227987766, 0.0, 1.0240000486373901, 0.0, 0.0, 0.0, 0.0, 0.0, 1.707426902018512E9, 0.0, 2024-02-08 13:15:02.018
54.0, 4795.696152580902, 7163.236079630442, 6155.961344764568, 1746.237827210687, -0.04800000227987766, 0.0, 1.0240000486373901, 0.0, 0.0, 0.0, 0.0, 0.0, 1.707426902018512E9, 0.0, 2024-02-08 13:15:02.018
55.0, 4986.277714422904, 7406.5277914479375, 5940.406600968447, 1581.998250706587, -0.04800000227987766, 0.0, 1.0240000486373901, 0.0, 0.0, 0.0, 0.0, 0.0, 1.707426902022822E9, 0.0, 2024-02-08 13:15:02.022
55.0, 5056.326040592976, 7486.868322296068, 6063.20995591348, 1709.3007052983157, -0.04800000227987766, 0.0, 1.0240000486373901, 0.0, 0.0, 0.0, 0.0, 0.0, 1.707426902022822E9, 0.0, 2024-02-08 13:15:02.022
56.0, 4817.574567321688, 7702.449245391879, 6214.210286574438, 1796.3674462167546, -0.04800000227987766, 0.0, 1.0240000486373901, 0.0, 0.0, 0.0, 0.0, 0.0, 1.707426902032491E9, 0.0, 2024-02-08 13:15:02.032
56.0, 4970.229803713039, 7895.312146206852, 6396.780982711352, 1561.5297782490961, -0.04800000227987766, 0.0, 1.0240000486373901, 0.0, 0.0, 0.0, 0.0, 0.0, 1.707426902032491E9, 0.0, 2024-02-08 13:15:02.032
57.0, 5058.132412271574, 8002.871668932494, 6540.415580409579, 1710.1384428883903, -0.04800000227987766, 0.0, 1.0240000486373901, 0.0, 0.0, 0.0, 0.0, 0.0, 1.707426902048417E9, 0.0, 2024-02-08 13:15:02.048
57.0, 4954.675559797324, 7875.4308380424045, 6412.802714121528, 1547.9090626104735, -0.04800000227987766, 0.0, 1.0240000486373901, 0.0, 0.0, 0.0, 0.0, 0.0, 1.707426902048417E9, 0.0, 2024-02-08 13:15:02.048
58.0, 4916.551019649021, 7840.859202852007, 6308.347308359109, 1477.6961808423512, -0.04800000227987766, 0.0, 1.0240000486373901, 0.0, 0.0, 0.0, 0.0, 0.0, 1.707426902051756E9, 0.0, 2024-02-08 13:15:02.051
58.0, 5062.796067516319, 8027.704604638275, 6527.127715867013, 1242.1292323833331, -0.04800000227987766, 0.0, 1.0240000486373901, 0.0, 0.0, 0.0, 0.0, 0.0, 1.707426902051756E9, 0.0, 2024-02-08 13:15:02.051
59.0, 5115.371581093408, 8080.938340607565, 6625.150493705645, 1333.2331953039393, -0.04800000227987766, 0.0, 1.0240000486373901, 0.0, 0.0, 0.0, 0.0, 0.0, 1.707426902062783E9, 0.0, 2024-02-08 13:15:02.062
59.0, 4892.0172759396955, 8323.31938678585, 6776.042367267888, 1452.6912097386084, -0.04800000227987766, 0.0, 1.0240000486373901, 0.0, 0.0, 0.0, 0.0, 0.0, 1.707426902062783E9, 0.0, 2024-02-08 13:15:02.062
60.0, 5101.032804663293, 8093.362288260367, 6570.338519955054, 1297.4610522277653, -0.04800000227987766, 0.0, 1.0240000486373901, 0.0, 0.0, 0.0, 0.0, 0.0, 1.707426902078532E9, 0.0, 2024-02-08 13:15:02.078
60.0, 5172.909941911697, 8167.704019579571, 6692.685607105494, 1422.0371197517961, -0.04800000227987766, 0.0, 1.0240000486373901, 0.0, 0.0, 0.0, 0.0, 0.0, 1.707426902078532E9, 0.0, 2024-02-08 13:15:02.078
61.0, 5416.16986457957, 8373.87161448691, 6841.722490289714, 1502.1027679531835, -0.04800000227987766, 0.0, 1.0240000486373901, 0.0, 0.0, 0.0, 0.0, 0.0, 1.707426902081619E9, 0.0, 2024-02-08 13:15:02.081
61.0, 5556.255297219846, 8552.537855070084, 7017.830639303196, 1738.7112785498612, -0.04800000227987766, 0.0, 1.0240000486373901, 0.0, 0.0, 0.0, 0.0, 0.0, 1.707426902081619E9, 0.0, 2024-02-08 13:15:02.081
62.0, 5633.652526802849, 8640.967789522372, 7147.085321671795, 1863.2462071743794, -0.04800000227987766, 0.0, 1.0240000486373901, 0.0, 0.0, 0.0, 0.0, 0.0, 1.707426902092769E9, 0.0, 2024-02-08 13:15:02.092
62.0, 5516.51138039073, 8489.00817452278, 7003.058034478221, 1660.8652609721757, -0.04800000227987766, 0.0, 1.0240000486373901, 0.0, 0.0, 0.0, 0.0, 0.0, 1.707426902092769E9, 0.0, 2024-02-08 13:15:02.092
63.0, 5455.629549012054, 8425.800125371665, 6877.464714166243, 1555.1345493248664, -0.04800000227987766, 0.0, 1.0240000486373901, 0.0, 0.0, 0.0, 0.0, 0.0, 1.707426902108414E9, 0.0, 2024-02-08 13:15:02.108
63.0, 5571.540268338751, 8572.127451037988, 7069.852647686843, 1750.2974886125885, -0.04800000227987766, 0.0, 1.0240000486373901, 0.0, 0.0, 0.0, 0.0, 0.0, 1.707426902108414E9, 0.0, 2024-02-08 13:15:02.108
64.0, 5592.775420287158, 8580.67312243674, 7130.371708769817, 1783.6312169176526, -0.04800000227987766, 0.0, 1.0240000486373901, 0.0, 0.0, 0.0, 0.0, 0.0, 1.707426902111254E9, 0.0, 2024-02-08 13:15:02.111
64.0, 5832.927486091852, 8779.682548828889, 7243.763605476357, 1848.415633900091, -0.04800000227987766, 0.0, 1.0240000486373901, 0.0, 0.0, 0.0, 0.0, 0.0, 1.707426902111254E9, 0.0, 2024-02-08 13:15:02.111
65.0, 6007.068447728641, 8997.569120247383, 6999.602366919164, 1647.9775657248683, -0.04800000227987766, 0.0, 1.0240000486373901, 0.0, 0.0, 0.0, 0.0, 0.0, 1.707426902122394E9, 0.0, 2024-02-08 13:15:02.122
65.0, 6056.09479624778, 9037.167180978227, 7102.875964295585, 1735.4500857884996, -0.04800000227987766, 0.0, 1.0240000486373901, 0.0, 0.0, 0.0, 0.0, 0.0, 1.707426902122394E9, 0.0, 2024-02-08 13:15:02.122
66.0, 6290.09846652532, 9219.631289966404, 7235.318911376409, 1793.8504935465753, -0.04800000227987766, 0.0, 1.0240000486373901, 0.0, 0.0, 0.0, 0.0, 0.0, 1.70742690215484E9, 0.0, 2024-02-08 13:15:02.154
66.0, 6418.074103109073, 9383.008819530718, 7389.750600246713, 2006.445106527768, -0.04800000227987766, 0.0, 1.0240000486373901, 0.0, 0.0, 0.0, 0.0, 0.0, 1.70742690215484E9, 0.0, 2024-02-08 13:15:02.154
67.0, 6488.952687069308, 9462.130142993294, 7514.711877466179, 2126.002228311263, -0.04800000227987766, 0.0, 1.0240000486373901, 0.0, 0.0, 0.0, 0.0, 0.0, 1.707426902158108E9, 0.0, 2024-02-08 13:15:02.158
67.0, 6370.917704567779, 9304.598077059723, 7363.698457155377, 1937.1858992483467, -0.04800000227987766, 0.0, 1.0240000486373901, 0.0, 0.0, 0.0, 0.0, 0.0, 1.707426902158108E9, 0.0, 2024-02-08 13:15:02.158
68.0, 6305.151563846972, 9240.470012519509, 7240.326637417078, 1830.1237832168117, -0.04800000227987766, 0.0, 1.0240000486373901, 0.0, 0.0, 0.0, 0.0, 0.0, 1.707426902161359E9, 0.0, 2024-02-08 13:15:02.161
68.0, 6432.738250835333, 9389.74063945096, 7431.663659050129, 2039.408584737219, -0.04800000227987766, 0.0, 1.0240000486373901, 0.0, 0.0, 0.0, 0.0, 0.0, 1.707426902161359E9, 0.0, 2024-02-08 13:15:02.161
69.0, 6467.313625925686, 9412.030443186872, 7501.917679717764, 2091.774663916789, -0.04800000227987766, 0.0, 1.0240000486373901, 0.0, 0.0, 0.0, 0.0, 0.0, 1.707426902164132E9, 0.0, 2024-02-08 13:15:02.164
69.0, 6231.643830217887, 9625.487103107851, 7635.108606789727, 2187.2786191352643, -0.04800000227987766, 0.0, 1.0240000486373901, 0.0, 0.0, 0.0, 0.0, 0.0, 1.707426902164132E9, 0.0, 2024-02-08 13:15:02.164
70.0, 6421.372694869991, 9857.49553675903, 7402.6195959942415, 2009.9755720859393, -0.04800000227987766, 0.0, 1.0240000486373901, 0.0, 0.0, 0.0, 0.0, 0.0, 1.70742690216795E9, 0.0, 2024-02-08 13:15:02.167
70.0, 6489.352856364567, 9919.177706728224, 7516.742643142119, 2115.8895388310775, -0.04800000227987766, 0.0, 1.0240000486373901, 0.0, 0.0, 0.0, 0.0, 0.0, 1.70742690216795E9, 0.0, 2024-02-08 13:15:02.167
71.0, 6249.872102601919, 10119.30910310708, 7667.709314703476, 2202.9899388491176, -0.04800000227987766, 0.0, 1.0240000486373901, 0.0, 0.0, 0.0, 0.0, 0.0, 1.707426902182456E9, 0.0, 2024-02-08 13:15:02.182
71.0, 6387.952948865946, 10291.927925461903, 7834.624789625872, 2429.2688457681797, -0.04800000227987766, 0.0, 1.0240000486373901, 0.0, 0.0, 0.0, 0.0, 0.0, 1.707426902182456E9, 0.0, 2024-02-08 13:15:02.182
72.0, 6465.499774447177, 10385.447863753885, 7967.649291149806, 2567.9331164252944, -0.04800000227987766, 0.0, 1.0240000486373901, 0.0, 0.0, 0.0, 0.0, 0.0, 1.707426902198191E9, 0.0, 2024-02-08 13:15:02.198
72.0, 6356.145099742804, 10239.012080988847, 7835.817817711737, 2388.754509548191, -0.04800000227987766, 0.0, 1.0240000486373901, 0.0, 0.0, 0.0, 0.0, 0.0, 1.707426902198191E9, 0.0, 2024-02-08 13:15:02.198
73.0, 6301.172310294118, 10183.878475842066, 7714.21497065248, 2285.4846520717256, -0.04800000227987766, 0.0, 1.0240000486373901, 0.0, 0.0, 0.0, 0.0, 0.0, 1.7074269022011E9, 0.0, 2024-02-08 13:15:02.201
73.0, 6427.670686395373, 10339.031965403818, 7907.822111558635, 2498.1727625518106, -0.04800000227987766, 0.0, 1.0240000486373901, 0.0, 0.0, 0.0, 0.0, 0.0, 1.7074269022011E9, 0.0, 2024-02-08 13:15:02.201
74.0, 6461.801013390999, 10364.773696798831, 7986.689121824224, 2563.052546983119, -0.04800000227987766, 0.0, 1.0240000486373901, 0.0, 0.0, 0.0, 0.0, 0.0, 1.707426902212768E9, 0.0, 2024-02-08 13:15:02.212
74.0, 6227.238228070084, 10578.955897311214, 8112.220733786933, 2662.2814425574616, -0.04800000227987766, 0.0, 1.0240000486373901, 0.0, 0.0, 0.0, 0.0, 0.0, 1.707426902212768E9, 0.0, 2024-02-08 13:15:02.212
75.0, 6417.569216615055, 10816.566701096017, 7886.549560610671, 2483.478695625905, -0.04800000227987766, 0.0, 1.0240000486373901, 0.0, 0.0, 0.0, 0.0, 0.0, 1.70742690222857E9, 0.0, 2024-02-08 13:15:02.228
75.0, 6476.0537721221335, 10874.273357412312, 7997.239379599225, 2597.2614118778147, -0.04800000227987766, 0.0, 1.0240000486373901, 0.0, 0.0, 0.0, 0.0, 0.0, 1.70742690222857E9, 0.0, 2024-02-08 13:15:02.228
76.0, 6235.017219977919, 11074.419713390991, 8146.313661783002, 2679.571000052616, -0.04800000227987766, 0.0, 1.0240000486373901, 0.0, 0.0, 0.0, 0.0, 0.0, 1.707426902231708E9, 0.0, 2024-02-08 13:15:02.231
76.0, 6363.441644556355, 11246.918858947232, 8309.534115549177, 2904.4811035878956, -0.04800000227987766, 0.0, 1.0240000486373901, 0.0, 0.0, 0.0, 0.0, 0.0, 1.707426902231708E9, 0.0, 2024-02-08 13:15:02.231
77.0, 6448.5243685483, 11337.738589471206, 8438.29887102358, 3040.3180098785087, -0.04800000227987766, 0.0, 1.0240000486373901, 0.0, 0.0, 0.0, 0.0, 0.0, 1.707426902242686E9, 0.0, 2024-02-08 13:15:02.242
77.0, 6337.42316056462, 11198.722768218257, 8309.829567645676, 2868.0806573191658, -0.04800000227987766, 0.0, 1.0240000486373901, 0.0, 0.0, 0.0, 0.0, 0.0, 1.707426902242686E9, 0.0, 2024-02-08 13:15:02.242
78.0, 6283.92015179852, 11139.688447417691, 8184.729914127849, 2767.2716540135443, -0.04800000227987766, 0.0, 1.0240000486373901, 0.0, 0.0, 0.0, 0.0, 0.0, 1.707426902258161E9, 0.0, 2024-02-08 13:15:02.258
78.0, 6419.618681790773, 11305.04812395852, 8393.206897257827, 2993.7412958303466, -0.04800000227987766, 0.0, 1.0240000486373901, 0.0, 0.0, 0.0, 0.0, 0.0, 1.707426902258161E9, 0.0, 2024-02-08 13:15:02.258
79.0, 6452.619558999781, 11337.790948070586, 8474.923711289652, 3065.4314380809665, -0.04800000227987766, 0.0, 1.0240000486373901, 0.0, 0.0, 0.0, 0.0, 0.0, 1.707426902261387E9, 0.0, 2024-02-08 13:15:02.261
79.0, 6221.594719036948, 11560.11117088655, 8610.564272832591, 3163.9796718633734, -0.04800000227987766, 0.0, 1.0240000486373901, 0.0, 0.0, 0.0, 0.0, 0.0, 1.707426902261387E9, 0.0, 2024-02-08 13:15:02.261
80.0, 6414.513718351256, 11316.335142024793, 8388.786335510202, 2997.6868902835995, -0.04800000227987766, 0.0, 1.0240000486373901, 0.0, 0.0, 0.0, 0.0, 0.0, 1.70742690227271E9, 0.0, 2024-02-08 13:15:02.272
80.0, 6485.085630515125, 11387.408200782724, 8503.171175654978, 3117.9770324584097, -0.04800000227987766, 0.0, 1.0240000486373901, 0.0, 0.0, 0.0, 0.0, 0.0, 1.70742690227271E9, 0.0, 2024-02-08 13:15:02.272
81.0, 6248.697774015833, 11595.2101319707, 8663.012629811186, 3211.068752205465, -0.04800000227987766, 0.0, 1.0240000486373901, 0.0, 0.0, 0.0, 0.0, 0.0, 1.707426902288823E9, 0.0, 2024-02-08 13:15:02.288
81.0, 6392.560505611356, 11778.360512600746, 8834.662818077486, 3444.98079493409, -0.04800000227987766, 0.0, 1.0240000486373901, 0.0, 0.0, 0.0, 0.0, 0.0, 1.707426902288823E9, 0.0, 2024-02-08 13:15:02.288
82.0, 6472.23907416733, 11871.495241197292, 8965.192806330975, 3584.1200328855775, -0.04800000227987766, 0.0, 1.0240000486373901, 0.0, 0.0, 0.0, 0.0, 0.0, 1.70742690229191E9, 0.0, 2024-02-08 13:15:02.291
82.0, 6368.273595299106, 11731.069477661047, 8837.718316341285, 3412.0734152239747, -0.04800000227987766, 0.0, 1.0240000486373901, 0.0, 0.0, 0.0, 0.0, 0.0, 1.70742690229191E9, 0.0, 2024-02-08 13:15:02.291
83.0, 6304.73643495189, 11681.239050651435, 8706.86295679165, 3306.009852480609, -0.04800000227987766, 0.0, 1.0240000486373901, 0.0, 0.0, 0.0, 0.0, 0.0, 1.70742690230274E9, 0.0, 2024-02-08 13:15:02.302
83.0, 6433.2393974293955, 11838.269969990943, 8899.105034213979, 3521.68614302529, -0.04800000227987766, 0.0, 1.0240000486373901, 0.0, 0.0, 0.0, 0.0, 0.0, 1.70742690230274E9, 0.0, 2024-02-08 13:15:02.302
84.0, 6473.002013758291, 11865.5188810681, 8976.22551120026, 3590.818193706218, -0.04800000227987766, 0.0, 1.0240000486373901, 0.0, 0.0, 0.0, 0.0, 0.0, 1.707426902318198E9, 0.0, 2024-02-08 13:15:02.318
84.0, 6236.374803661834, 12083.212847638875, 9110.16441826336, 3683.8126760544255, -0.04800000227987766, 0.0, 1.0240000486373901, 0.0, 0.0, 0.0, 0.0, 0.0, 1.707426902318198E9, 0.0, 2024-02-08 13:15:02.318
85.0, 6425.613741419744, 12311.601058132946, 8876.58709658077, 3502.4106986536644, -0.04800000227987766, 0.0, 1.0240000486373901, 0.0, 0.0, 0.0, 0.0, 0.0, 1.707426902321181E9, 0.0, 2024-02-08 13:15:02.321
85.0, 6481.4691472579725, 12370.261388937943, 8986.940324573312, 3606.596831619274, -0.04800000227987766, 0.0, 1.0240000486373901, 0.0, 0.0, 0.0, 0.0, 0.0, 1.707426902321181E9, 0.0, 2024-02-08 13:15:02.321
86.0, 6241.124476605561, 12570.602219714317, 9137.929435534403, 3695.9449115106836, -0.04800000227987766, 0.0, 1.0240000486373901, 0.0, 0.0, 0.0, 0.0, 0.0, 1.70742690233241E9, 0.0, 2024-02-08 13:15:02.332
86.0, 6370.854126268532, 12741.194016293157, 9288.74838104751, 3912.862848840654, -0.04800000227987766, 0.0, 1.0240000486373901, 0.0, 0.0, 0.0, 0.0, 0.0, 1.70742690233241E9, 0.0, 2024-02-08 13:15:02.332
87.0, 6455.121552070137, 12829.635170445312, 9422.247849865817, 4049.219601225108, -0.04800000227987766, 0.0, 1.0240000486373901, 0.0, 0.0, 0.0, 0.0, 0.0, 1.707426902348176E9, 0.0, 2024-02-08 13:15:02.348
87.0, 6346.455018957611, 12683.375162978191, 9289.410343339667, 3866.3871120912954, -0.04800000227987766, 0.0, 1.0240000486373901, 0.0, 0.0, 0.0, 0.0, 0.0, 1.707426902348176E9, 0.0, 2024-02-08 13:15:02.348
88.0, 6279.664145648945, 12619.669707132969, 9166.191859499551, 3759.9981780517846, -0.04800000227987766, 0.0, 1.0240000486373901, 0.0, 0.0, 0.0, 0.0, 0.0, 1.707426902351231E9, 0.0, 2024-02-08 13:15:02.351
88.0, 6409.707946908195, 12777.85999545874, 9360.565679896623, 3975.2668195012957, -0.04800000227987766, 0.0, 1.0240000486373901, 0.0, 0.0, 0.0, 0.0, 0.0, 1.707426902351231E9, 0.0, 2024-02-08 13:15:02.351
89.0, 6449.953010331374, 12809.596786482725, 9441.044587043114, 4039.290166842751, -0.04800000227987766, 0.0, 1.0240000486373901, 0.0, 0.0, 0.0, 0.0, 0.0, 1.707426902363057E9, 0.0, 2024-02-08 13:15:02.363
89.0, 6213.243522435892, 13027.601164749824, 9566.299446409103, 4132.3818865898065, -0.04800000227987766, 0.0, 1.0240000486373901, 0.0, 0.0, 0.0, 0.0, 0.0, 1.707426902363057E9, 0.0, 2024-02-08 13:15:02.363
90.0, 6400.563891516533, 13263.876824250445, 9336.084294786677, 3955.385511336848, -0.04800000227987766, 0.0, 1.0240000486373901, 0.0, 0.0, 0.0, 0.0, 0.0, 1.707426902378234E9, 0.0, 2024-02-08 13:15:02.378
90.0, 6463.289493573364, 13321.777955364436, 9436.51930809673, 4069.3327831868082, -0.04800000227987766, 0.0, 1.0240000486373901, 0.0, 0.0, 0.0, 0.0, 0.0, 1.707426902378234E9, 0.0, 2024-02-08 13:15:02.378
91.0, 6227.298066469375, 13525.566973899957, 9588.679007743951, 4157.682309790049, -0.04800000227987766, 0.0, 1.0240000486373901, 0.0, 0.0, 0.0, 0.0, 0.0, 1.70742690238114E9, 0.0, 2024-02-08 13:15:02.381
91.0, 6358.329201316927, 13701.237554618623, 9752.00043880893, 4386.7399623761885, -0.04800000227987766, 0.0, 1.0240000486373901, 0.0, 0.0, 0.0, 0.0, 0.0, 1.70742690238114E9, 0.0, 2024-02-08 13:15:02.381
92.0, 6441.007169637363, 13796.309551392216, 9886.995867609512, 4523.73249775311, -0.04800000227987766, 0.0, 1.0240000486373901, 0.0, 0.0, 0.0, 0.0, 0.0, 1.707426902392755E9, 0.0, 2024-02-08 13:15:02.392
92.0, 6337.037950869184, 13654.68701987015, 9757.89078123914, 4351.435306794476, -0.04800000227987766, 0.0, 1.0240000486373901, 0.0, 0.0, 0.0, 0.0, 0.0, 1.707426902392755E9, 0.0, 2024-02-08 13:15:02.392
