%OpenBCI Raw EXG Data
%Number of channels = 4
%Sample Rate = 200 Hz
%Board = OpenBCI_GUI$BoardGanglionBLE
Sample Index, EXG Channel 0, EXG Channel 1, EXG Channel 2, EXG Channel 3, Accel Channel 0, Accel Channel 1, Accel Channel 2, Other, Other, Other, Other, Other, Timestamp, Other, Timestamp (Formatted)
102.0, 2.41597537137568, -257.89789109444246, 79.91418225318193, 52.75502877496183, 0.0, 0.0, 0.0, 0.0, 0.0, 0.0, 0.0, 0.0, 1.708981827868539E9, 0.0, 2024-02-26 13:10:27.868
102.0, 19.997245063073933, -724.1643082201481, 194.21300469897687, 56.25931503344327, 0.0, 0.0, 0.0, 0.0, 0.0, 0.0, 0.0, 0.0, 1.708981827868539E9, 0.0, 2024-02-26 13:10:27.868
103.0, 2.3860561717301607, -533.5528271785006, 298.79556705988944, 75.19442850910127, 0.0, 0.0, 0.0, 0.0, 0.0, 0.0, 0.0, 0.0, 1.708981827877598E9, 0.0, 2024-02-26 13:10:27.877
103.0, 7.274105413816869, -605.489802826196, 339.88958777301013, 231.780299753882, 0.0, 0.0, 0.0, 0.0, 0.0, 0.0, 0.0, 0.0, 1.708981827877598E9, 0.0, 2024-02-26 13:10:27.877
104.0, 10.183747579343617, -573.0480406605639, 624.7914264975116, 352.9904573177919, 0.0, 0.0, 0.0, 0.0, 0.0, 0.0, 0.0, 0.0, 1.708981827880915E9, 0.0, 2024-02-26 13:10:27.880
104.0, -22.207525936886668, -970.8237999477424, 723.2667322307825, 459.9515960505232, 0.0, 0.0, 0.0, 0.0, 0.0, 0.0, 0.0, 0.0, 1.708981827880915E9, 0.0, 2024-02-26 13:10:27.880
105.0, -56.03866093605757, -1035.5726878806017, 758.5826075123623, 497.8218230018392, 0.0, 0.0, 0.0, 0.0, 0.0, 0.0, 0.0, 0.0, 1.708981827891514E9, 0.0, 2024-02-26 13:10:27.891
105.0, -35.214897982776165, -885.1052929633297, 613.0556204365566, 509.49031086359173, 0.0, 0.0, 0.0, 0.0, 0.0, 0.0, 0.0, 0.0, 1.708981827891514E9, 0.0, 2024-02-26 13:10:27.891
106.0, -27.83233547024429, -1154.8306176676415, 365.38448577094823, 469.4771212376654, 0.0, 0.0, 0.0, 0.0, 0.0, 0.0, 0.0, 0.0, 1.708981827907613E9, 0.0, 2024-02-26 13:10:27.907
106.0, -20.277737559750676, -1573.42266010819, 262.29414349235594, 396.9754206966609, 0.0, 0.0, 0.0, 0.0, 0.0, 0.0, 0.0, 0.0, 1.708981827907613E9, 0.0, 2024-02-26 13:10:27.907
107.0, -6.795398219488561, -1617.03363349149, 113.88369355071336, 368.85885282978415, 0.0, 0.0, 0.0, 0.0, 0.0, 0.0, 0.0, 0.0, 1.708981827911535E9, 0.0, 2024-02-26 13:10:27.911
107.0, -6.3391304248943925, -1577.4841914600693, -16.320923406630754, 354.1647859038785, 0.0, 0.0, 0.0, 0.0, 0.0, 0.0, 0.0, 0.0, 1.708981827911535E9, 0.0, 2024-02-26 13:10:27.911
108.0, -9.64146208576858, -1737.7800434608944, -55.59735274128616, 331.7066866699606, 0.0, 0.0, 0.0, 0.0, 0.0, 0.0, 0.0, 0.0, 1.708981827921639E9, 0.0, 2024-02-26 13:10:27.921
108.0, -32.48477101512253, -1793.8860225961544, -11.503932263702154, 296.9891953812912, 0.0, 0.0, 0.0, 0.0, 0.0, 0.0, 0.0, 0.0, 1.708981827921639E9, 0.0, 2024-02-26 13:10:27.921
109.0, -11.470273164100945, -1670.461844258476, -21.063116550445557, 320.4869868028909, 0.0, 0.0, 0.0, 0.0, 0.0, 0.0, 0.0, 0.0, 1.708981827937658E9, 0.0, 2024-02-26 13:10:27.937
109.0, -17.794443989172578, -1693.2191354888491, 47.16387834120542, 308.3584912465885, 0.0, 0.0, 0.0, 0.0, 0.0, 0.0, 0.0, 0.0, 1.708981827937658E9, 0.0, 2024-02-26 13:10:27.937
110.0, -20.17302036099136, -1706.9670077259652, 76.91852238867432, 354.26576320268214, 0.0, 0.0, 0.0, 0.0, 0.0, 0.0, 0.0, 0.0, 1.708981827940723E9, 0.0, 2024-02-26 13:10:27.940
110.0, -5.486433234997094, -1390.0815445804037, 94.69800677802414, 437.26162301935256, 0.0, 0.0, 0.0, 0.0, 0.0, 0.0, 0.0, 0.0, 1.708981827940723E9, 0.0, 2024-02-26 13:10:27.940
111.0, -5.938961129635572, -1154.3519104733132, 193.5398227069527, 649.3326500067487, 0.0, 0.0, 0.0, 0.0, 0.0, 0.0, 0.0, 0.0, 1.708981827951492E9, 0.0, 2024-02-26 13:10:27.951
111.0, -18.49380528088659, -1603.526984801516, -187.44939562911168, 488.6571981604211, 0.0, 0.0, 0.0, 0.0, 0.0, 0.0, 0.0, 0.0, 1.708981827951492E9, 0.0, 2024-02-26 13:10:27.951
112.0, -19.006171574816108, -1537.3569348854944, -82.56764127174392, 785.7810299401172, 0.0, 0.0, 0.0, 0.0, 0.0, 0.0, 0.0, 0.0, 1.708981827967026E9, 0.0, 2024-02-26 13:10:27.967
112.0, -121.28495556302369, -1451.285007355269, -402.0018462371081, 454.9102109102532, 0.0, 0.0, 0.0, 0.0, 0.0, 0.0, 0.0, 0.0, 1.708981827967026E9, 0.0, 2024-02-26 13:10:27.967
113.0, -100.88380130473524, -1248.113072312437, -8.699007296934724, 218.07543636625633, 0.0, 0.0, 0.0, 0.0, 0.0, 0.0, 0.0, 0.0, 1.708981827969952E9, 0.0, 2024-02-26 13:10:27.969
113.0, -58.21902261022478, -859.0606296719052, 193.04241601284593, 476.7231774018146, 0.0, 0.0, 0.0, 0.0, 0.0, 0.0, 0.0, 0.0, 1.708981827969952E9, 0.0, 2024-02-26 13:10:27.969
114.0, -48.17365132924169, -1038.1214297004044, -113.09831456001848, 544.9389525935985, 0.0, 0.0, 0.0, 0.0, 0.0, 0.0, 0.0, 0.0, 1.708981827984671E9, 0.0, 2024-02-26 13:10:27.984
114.0, -41.96167750284076, -1360.854226426687, -94.0809232853353, 646.8624460860156, 0.0, 0.0, 0.0, 0.0, 0.0, 0.0, 0.0, 0.0, 1.708981827984671E9, 0.0, 2024-02-26 13:10:27.984
115.0, -39.12683333642781, -1384.325838548597, -150.11584432143718, 803.668971428182, 0.0, 0.0, 0.0, 0.0, 0.0, 0.0, 0.0, 0.0, 1.708981827998569E9, 0.0, 2024-02-26 13:10:27.998
115.0, -41.621346606872976, -1438.7488627037965, -143.89639069512486, 1000.6682015941478, 0.0, 0.0, 0.0, 0.0, 0.0, 0.0, 0.0, 0.0, 1.708981827998569E9, 0.0, 2024-02-26 13:10:27.998
116.0, -43.80170828104019, -1551.8359575639479, -172.80581735260785, 867.0901948767714, 0.0, 0.0, 0.0, 0.0, 0.0, 0.0, 0.0, 0.0, 1.708981828001692E9, 0.0, 2024-02-26 13:10:28.001
116.0, -49.64343201182783, -1933.0963186467998, 8.261439002119005, 646.4884560904466, 0.0, 0.0, 0.0, 0.0, 0.0, 0.0, 0.0, 0.0, 1.708981828001692E9, 0.0, 2024-02-26 13:10:28.001
117.0, -36.99883026164025, -1677.53025517473, -11.720846461132169, 568.5190218142234, 0.0, 0.0, 0.0, 0.0, 0.0, 0.0, 0.0, 0.0, 1.708981828011677E9, 0.0, 2024-02-26 13:10:28.011
117.0, -33.78251629974693, -2140.221327942796, -360.18228493258357, 766.7860780651681, 0.0, 0.0, 0.0, 0.0, 0.0, 0.0, 0.0, 0.0, 1.708981828011677E9, 0.0, 2024-02-26 13:10:28.011
118.0, -37.49249705579132, -1793.7121172482148, -541.5936120832339, 608.0609840457328, 0.0, 0.0, 0.0, 0.0, 0.0, 0.0, 0.0, 0.0, 1.708981828027371E9, 0.0, 2024-02-26 13:10:28.027
118.0, -20.58814925607294, -1515.7216136418283, -795.5889175739139, 173.18915709806606, 0.0, 0.0, 0.0, 0.0, 0.0, 0.0, 0.0, 0.0, 1.708981828027371E9, 0.0, 2024-02-26 13:10:28.027
119.0, -15.842216212302446, -1261.5393131533638, -1261.9320026487112, 631.9682945124805, 0.0, 0.0, 0.0, 0.0, 0.0, 0.0, 0.0, 0.0, 1.708981828031323E9, 0.0, 2024-02-26 13:10:28.031
119.0, -16.89312809985131, -870.6300101848319, -871.099367629271, 1030.7631765375845, 0.0, 0.0, 0.0, 0.0, 0.0, 0.0, 0.0, 0.0, 1.708981828031323E9, 0.0, 2024-02-26 13:10:28.031
120.0, -21.418407046236098, -930.8498792713508, -1045.0533342682756, 1472.9782970482484, 0.0, 0.0, 0.0, 0.0, 0.0, 0.0, 0.0, 0.0, 1.708981828041491E9, 0.0, 2024-02-26 13:10:28.041
120.0, -19.918707164004445, -1298.7400980126113, -1450.4435298652388, 1240.8913254979998, 0.0, 0.0, 0.0, 0.0, 0.0, 0.0, 0.0, 0.0, 1.708981828041491E9, 0.0, 2024-02-26 13:10:28.041
121.0, -19.25674487184733, -1425.3992898119614, -1785.2244142987765, 1058.8629148546606, 0.0, 0.0, 0.0, 0.0, 0.0, 0.0, 0.0, 0.0, 1.708981828056995E9, 0.0, 2024-02-26 13:10:28.056
121.0, -43.618453183211386, -1673.7735256692395, -1783.0403127246536, 933.995135134086, 0.0, 0.0, 0.0, 0.0, 0.0, 0.0, 0.0, 0.0, 1.708981828056995E9, 0.0, 2024-02-26 13:10:28.056
122.0, -114.33248154539615, -1289.4258771729656, -1816.9724250226282, 686.3726191679016, 0.0, 0.0, 0.0, 0.0, 0.0, 0.0, 0.0, 0.0, 1.708981828059968E9, 0.0, 2024-02-26 13:10:28.059
122.0, -174.88146182801574, -1387.2616600138135, -2132.9116934794, 1021.9145732424222, 0.0, 0.0, 0.0, 0.0, 0.0, 0.0, 0.0, 0.0, 1.708981828059968E9, 0.0, 2024-02-26 13:10:28.059
123.0, -215.6987299444154, -1387.2616600138135, -2588.438987882342, 756.0862242919393, 0.0, 0.0, 0.0, 0.0, 0.0, 0.0, 0.0, 0.0, 1.708981828071449E9, 0.0, 2024-02-26 13:10:28.071
123.0, -202.0593148060143, -1387.2616600138135, -2842.2959170746617, 273.9944205037318, 0.0, 0.0, 0.0, 0.0, 0.0, 0.0, 0.0, 0.0, 1.708981828071449E9, 0.0, 2024-02-26 13:10:28.071
124.0, -104.63118106033653, -951.8625071723945, -2876.269168272149, -141.02227757917717, 0.0, 0.0, 0.0, 0.0, 0.0, 0.0, 0.0, 0.0, 1.708981828087554E9, 0.0, 2024-02-26 13:10:28.087
124.0, -14.432273929007351, -1070.871733612381, -3364.80481968401, -318.56280827568844, 0.0, 0.0, 0.0, 0.0, 0.0, 0.0, 0.0, 0.0, 1.708981828087554E9, 0.0, 2024-02-26 13:10:28.087
125.0, -31.067348931916058, -1267.8541342285462, -3113.0815034164116, -16.9716659989208, 0.0, 0.0, 0.0, 0.0, 0.0, 0.0, 0.0, 0.0, 1.708981828090699E9, 0.0, 2024-02-26 13:10:28.090
125.0, -38.55088874325156, -817.1139117688872, -3282.04270361457, 318.7348436736502, 0.0, 0.0, 0.0, 0.0, 0.0, 0.0, 0.0, 0.0, 1.708981828090699E9, 0.0, 2024-02-26 13:10:28.090
126.0, -111.3480413807556, -968.5181516250595, -3548.473176457919, 539.5441469075158, 0.0, 0.0, 0.0, 0.0, 0.0, 0.0, 0.0, 0.0, 1.708981828101702E9, 0.0, 2024-02-26 13:10:28.101
126.0, -138.1369447633624, -1150.6924183666706, -3809.5593322645873, 539.5441469075158, 0.0, 0.0, 0.0, 0.0, 0.0, 0.0, 0.0, 0.0, 1.708981828101702E9, 0.0, 2024-02-26 13:10:28.101
127.0, -149.4090032298118, -1306.1077009253204, -4273.03391407337, 539.5441469075158, 0.0, 0.0, 0.0, 0.0, 0.0, 0.0, 0.0, 0.0, 1.708981828117426E9, 0.0, 2024-02-26 13:10:28.117
127.0, -177.75744489394128, -1476.5798207055777, -4006.04058628669, 539.5441469075158, 0.0, 0.0, 0.0, 0.0, 0.0, 0.0, 0.0, 0.0, 1.708981828117426E9, 0.0, 2024-02-26 13:10:28.117
128.0, -205.75807586219162, -1673.0592047777027, -3888.2019485328346, 539.5441469075158, 0.0, 0.0, 0.0, 0.0, 0.0, 0.0, 0.0, 0.0, 1.708981828120652E9, 0.0, 2024-02-26 13:10:28.120
128.0, -277.7922889087349, -1856.871547699906, -4177.217677208595, 539.5441469075158, 0.0, 0.0, 0.0, 0.0, 0.0, 0.0, 0.0, 0.0, 1.708981828120652E9, 0.0, 2024-02-26 13:10:28.120
129.0, -340.10276207048446, -2110.807014791295, -3924.8922370481305, 539.5441469075158, 0.0, 0.0, 0.0, 0.0, 0.0, 0.0, 0.0, 0.0, 1.708981828131382E9, 0.0, 2024-02-26 13:10:28.131
129.0, -363.3911190945655, -2296.1938555948436, -4204.610574434046, 539.5441469075158, 0.0, 0.0, 0.0, 0.0, 0.0, 0.0, 0.0, 0.0, 1.708981828131382E9, 0.0, 2024-02-26 13:10:28.131
130.0, -415.74223867431283, -2500.010923380032, -3923.6150612132624, 539.5441469075158, 0.0, 0.0, 0.0, 0.0, 0.0, 0.0, 0.0, 0.0, 1.708981828147089E9, 0.0, 2024-02-26 13:10:28.147
130.0, -456.0695798965171, -2689.773447131738, -4158.1554071344435, 539.5441469075158, 0.0, 0.0, 0.0, 0.0, 0.0, 0.0, 0.0, 0.0, 1.708981828147089E9, 0.0, 2024-02-26 13:10:28.147
131.0, -561.2131272507831, -2946.267005792819, -4158.1554071344435, 539.5441469075158, 0.0, 0.0, 0.0, 0.0, 0.0, 0.0, 0.0, 0.0, 1.708981828150411E9, 0.0, 2024-02-26 13:10:28.150
131.0, -511.5360361393541, -2701.7560865897685, -4158.1554071344435, 754.7978287572041, 0.0, 0.0, 0.0, 0.0, 0.0, 0.0, 0.0, 0.0, 1.708981828150411E9, 0.0, 2024-02-26 13:10:28.150
132.0, -138.8026469554752, -2443.9161639446393, -4158.1554071344435, 275.65119618410245, 0.0, 0.0, 0.0, 0.0, 0.0, 0.0, 0.0, 0.0, 1.708981828161458E9, 0.0, 2024-02-26 13:10:28.161
132.0, -82.84252391848713, -2534.4628817718476, -4158.1554071344435, 24.242031512781978, 0.0, 0.0, 0.0, 0.0, 0.0, 0.0, 0.0, 0.0, 1.708981828161458E9, 0.0, 2024-02-26 13:10:28.161
133.0, 80.45272784680128, -2599.1332318056375, -3688.498770698905, -451.73316589789465, 0.0, 0.0, 0.0, 0.0, 0.0, 0.0, 0.0, 0.0, 1.708981828178185E9, 0.0, 2024-02-26 13:10:28.178
133.0, 67.80438619665802, -2656.2041051294655, -3728.020163480658, -493.1114190076478, 0.0, 0.0, 0.0, 0.0, 0.0, 0.0, 0.0, 0.0, 1.708981828178185E9, 0.0, 2024-02-26 13:10:28.178
134.0, 50.24181600473821, -2773.9511153344065, -3837.4627258339897, -523.3859091489576, 0.0, 0.0, 0.0, 0.0, 0.0, 0.0, 0.0, 0.0, 1.70898182819236E9, 0.0, 2024-02-26 13:10:28.192
134.0, 36.74825696460903, -2803.1372945886105, -3448.169059646316, -534.7739045140333, 0.0, 0.0, 0.0, 0.0, 0.0, 0.0, 0.0, 0.0, 1.70898182819236E9, 0.0, 2024-02-26 13:10:28.192
135.0, 35.87312037497759, -2900.759903131984, -3234.332799879834, -506.7022154466249, 0.0, 0.0, 0.0, 0.0, 0.0, 0.0, 0.0, 0.0, 1.708981828195386E9, 0.0, 2024-02-26 13:10:28.195
135.0, 16.642554802820086, -3118.867128647864, -3251.5961780752987, -467.1602532151155, 0.0, 0.0, 0.0, 0.0, 0.0, 0.0, 0.0, 0.0, 1.708981828195386E9, 0.0, 2024-02-26 13:10:28.195
136.0, 12.371589053422213, -3134.724304459989, -3232.597486300394, -454.0556437703781, 0.0, 0.0, 0.0, 0.0, 0.0, 0.0, 0.0, 0.0, 1.708981828207564E9, 0.0, 2024-02-26 13:10:28.207
136.0, 13.093389744870365, -3293.0529690841213, -3527.9673050008714, -435.42720209108666, 0.0, 0.0, 0.0, 0.0, 0.0, 0.0, 0.0, 0.0, 1.708981828207564E9, 0.0, 2024-02-26 13:10:28.207
137.0, 2.3037783727049828, -3433.4712528204545, -3506.3749926066957, -390.3913268246688, 0.0, 0.0, 0.0, 0.0, 0.0, 0.0, 0.0, 0.0, 1.70898182821079E9, 0.0, 2024-02-26 13:10:28.210
137.0, 16.43686030525714, -3532.1036343518645, -3186.970706840977, -397.1642856444232, 0.0, 0.0, 0.0, 0.0, 0.0, 0.0, 0.0, 0.0, 1.70898182821079E9, 0.0, 2024-02-26 13:10:28.210
138.0, 17.944039987400174, -3653.500786913559, -3057.790822471492, -371.7778447452001, 0.0, 0.0, 0.0, 0.0, 0.0, 0.0, 0.0, 0.0, 1.708981828221669E9, 0.0, 2024-02-26 13:10:28.221
138.0, 32.58948821388185, -3736.9042958253995, -2841.340372635983, -233.22577108675614, 0.0, 0.0, 0.0, 0.0, 0.0, 0.0, 0.0, 0.0, 1.708981828221669E9, 0.0, 2024-02-26 13:10:28.221
139.0, 21.35856864694506, -3844.40398015175, -2665.856786915101, -154.9459251142107, 0.0, 0.0, 0.0, 0.0, 0.0, 0.0, 0.0, 0.0, 1.708981828237082E9, 0.0, 2024-02-26 13:10:28.237
139.0, 7.524678710848093, -3960.4942146763206, -2543.9323084596545, -127.1921275430359, 0.0, 0.0, 0.0, 0.0, 0.0, 0.0, 0.0, 0.0, 1.708981828237082E9, 0.0, 2024-02-26 13:10:28.237
140.0, 16.57149670366198, -4081.865187938325, -2382.772539569065, -79.04091561352834, 0.0, 0.0, 0.0, 0.0, 0.0, 0.0, 0.0, 0.0, 1.70898182824003E9, 0.0, 2024-02-26 13:10:28.240
140.0, 20.000984963029623, -4165.425772648305, -2225.5695848315954, -27.669649822171777, 0.0, 0.0, 0.0, 0.0, 0.0, 0.0, 0.0, 0.0, 1.70898182824003E9, 0.0, 2024-02-26 13:10:28.240
141.0, 16.822070000693202, -4261.107373114675, -2106.225637345575, -10.301554427947849, 0.0, 0.0, 0.0, 0.0, 0.0, 0.0, 0.0, 0.0, 1.708981828252698E9, 0.0, 2024-02-26 13:10:28.252
141.0, 9.297391289845109, -4361.815399121493, -1977.778773367405, -10.365132727194577, 0.0, 0.0, 0.0, 0.0, 0.0, 0.0, 0.0, 0.0, 1.708981828252698E9, 0.0, 2024-02-26 13:10:28.252
142.0, 19.74293186608702, -4451.935768353753, -1809.8684850567952, 58.92773365182802, 0.0, 0.0, 0.0, 0.0, 0.0, 0.0, 0.0, 0.0, 1.708981828267592E9, 0.0, 2024-02-26 13:10:28.267
142.0, 20.47595225740224, -4541.820523888804, -1686.1787738222629, 83.05382826598361, 0.0, 0.0, 0.0, 0.0, 0.0, 0.0, 0.0, 0.0, 1.708981828267592E9, 0.0, 2024-02-26 13:10:28.267
143.0, -4.7683724435046315, -4650.262663003989, -1578.7763268947601, 87.16771821724251, 0.0, 0.0, 0.0, 0.0, 0.0, 0.0, 0.0, 0.0, 1.70898182827068E9, 0.0, 2024-02-26 13:10:28.270
143.0, 12.207033455371857, -4715.445379331708, -1426.5287395985797, 141.74407827062532, 0.0, 0.0, 0.0, 0.0, 0.0, 0.0, 0.0, 0.0, 1.70898182827068E9, 0.0, 2024-02-26 13:10:28.270
144.0, 9.117876091971993, -4799.761423832737, -1304.2527105472982, 173.26021519722417, 0.0, 0.0, 0.0, 0.0, 0.0, 0.0, 0.0, 0.0, 1.708981828281835E9, 0.0, 2024-02-26 13:10:28.281
144.0, 1.9597075767815113, -4888.251196684316, -1210.4298403589055, 161.75254303356633, 0.0, 0.0, 0.0, 0.0, 0.0, 0.0, 0.0, 0.0, 1.708981828281835E9, 0.0, 2024-02-26 13:10:28.281
145.0, 9.461946887895465, -4956.713805273175, -1076.9939498398453, 194.90301624080166, 0.0, 0.0, 0.0, 0.0, 0.0, 0.0, 0.0, 0.0, 1.708981828297113E9, 0.0, 2024-02-26 13:10:28.297
145.0, 14.585609827190638, -5024.4433934707195, -945.1849158015102, 254.93215042958036, 0.0, 0.0, 0.0, 0.0, 0.0, 0.0, 0.0, 0.0, 1.708981828297113E9, 0.0, 2024-02-26 13:10:28.297
146.0, 66.46924191247672, -5069.804640033282, -759.502622901462, 674.6985214562155, 0.0, 0.0, 0.0, 0.0, 0.0, 0.0, 0.0, 0.0, 1.708981828299994E9, 0.0, 2024-02-26 13:10:28.299
146.0, 53.49926886614412, -5146.5324275242165, -644.2314264671877, 817.5888790632598, 0.0, 0.0, 0.0, 0.0, 0.0, 0.0, 0.0, 0.0, 1.708981828299994E9, 0.0, 2024-02-26 13:10:28.299
147.0, 69.27790677919984, -5204.571934936568, -498.0237775994465, 894.7691944488324, 0.0, 0.0, 0.0, 0.0, 0.0, 0.0, 0.0, 0.0, 1.708981828328397E9, 0.0, 2024-02-26 13:10:28.328
147.0, 56.902577825821936, -5293.933104477823, -414.88954148441553, 894.8776515475474, 0.0, 0.0, 0.0, 0.0, 0.0, 0.0, 0.0, 0.0, 1.708981828328397E9, 0.0, 2024-02-26 13:10:28.328
148.0, 45.85865325666964, -5382.4004379296675, -336.58725611213595, 891.7174360849895, 0.0, 0.0, 0.0, 0.0, 0.0, 0.0, 0.0, 0.0, 1.708981828331478E9, 0.0, 2024-02-26 13:10:28.331
148.0, 46.32988065108657, -5395.351711476222, -205.5748207643628, 939.386200920213, 0.0, 0.0, 0.0, 0.0, 0.0, 0.0, 0.0, 0.0, 1.708981828331478E9, 0.0, 2024-02-26 13:10:28.331
149.0, 42.006556302309036, -5469.110018402338, -108.61043461319059, 952.7675629616715, 0.0, 0.0, 0.0, 0.0, 0.0, 0.0, 0.0, 0.0, 1.708981828334673E9, 0.0, 2024-02-26 13:10:28.334
149.0, 37.193305059336126, -5561.95303480234, -33.48332430329174, 947.5952813229524, 0.0, 0.0, 0.0, 0.0, 0.0, 0.0, 0.0, 0.0, 1.708981828334673E9, 0.0, 2024-02-26 13:10:28.334
150.0, 36.392966468818486, -5628.224062017165, 71.59664475172758, 974.832972700242, 0.0, 0.0, 0.0, 0.0, 0.0, 0.0, 0.0, 0.0, 1.708981828341771E9, 0.0, 2024-02-26 13:10:28.341
150.0, 42.68347819428891, -5679.2362974127755, 170.1542282840237, 1007.1045694178902, 0.0, 0.0, 0.0, 0.0, 0.0, 0.0, 0.0, 0.0, 1.708981828341771E9, 0.0, 2024-02-26 13:10:28.341
151.0, 36.26580987032503, -5740.533257686533, 253.5988760953769, 1004.0228918544017, 0.0, 0.0, 0.0, 0.0, 0.0, 0.0, 0.0, 0.0, 1.708981828357486E9, 0.0, 2024-02-26 13:10:28.357
151.0, 35.233597482554615, -5801.822738160379, 331.2728582751006, 1010.2722646803595, 0.0, 0.0, 0.0, 0.0, 0.0, 0.0, 0.0, 0.0, 1.708981828357486E9, 0.0, 2024-02-26 13:10:28.357
152.0, 40.69011151790619, -5849.917851590551, 442.7630158541724, 1061.9128032685257, 0.0, 0.0, 0.0, 0.0, 0.0, 0.0, 0.0, 0.0, 1.708981828360517E9, 0.0, 2024-02-26 13:10:28.360
152.0, 47.18257784098387, -5914.352587927133, 512.7141046253964, 1065.806039122399, 0.0, 0.0, 0.0, 0.0, 0.0, 0.0, 0.0, 0.0, 1.708981828360517E9, 0.0, 2024-02-26 13:10:28.360
153.0, 35.03164288494736, -5992.595034900121, 581.9321730053052, 1061.5537728727795, 0.0, 0.0, 0.0, 0.0, 0.0, 0.0, 0.0, 0.0, 1.708981828371506E9, 0.0, 2024-02-26 13:10:28.371
153.0, 30.723278135992587, -6012.255688967183, 685.2992678806186, 1108.235204119701, 0.0, 0.0, 0.0, 0.0, 0.0, 0.0, 0.0, 0.0, 1.708981828371506E9, 0.0, 2024-02-26 13:10:28.371
154.0, 15.146594820544124, -6062.374088273384, 766.6159126171842, 1120.9882629686035, 0.0, 0.0, 0.0, 0.0, 0.0, 0.0, 0.0, 0.0, 1.70898182838722E9, 0.0, 2024-02-26 13:10:28.387
154.0, 10.03041168116033, -6134.441960419528, 821.6784596648067, 1117.3306408119388, 0.0, 0.0, 0.0, 0.0, 0.0, 0.0, 0.0, 0.0, 1.70898182838722E9, 0.0, 2024-02-26 13:10:28.387
155.0, 17.902901087887585, -6180.173457077704, 908.6086942348629, 1141.991541119758, 0.0, 0.0, 0.0, 0.0, 0.0, 0.0, 0.0, 0.0, 1.708981828391973E9, 0.0, 2024-02-26 13:10:28.391
155.0, 27.877214269712567, -6221.461952588521, 996.4215451944619, 1172.4118873593397, 0.0, 0.0, 0.0, 0.0, 0.0, 0.0, 0.0, 0.0, 1.708981828391973E9, 0.0, 2024-02-26 13:10:28.391
156.0, 25.996044592000544, -6282.287685467862, 1054.9098406014964, 1172.3557888600044, 0.0, 0.0, 0.0, 0.0, 0.0, 0.0, 0.0, 0.0, 1.708981828401719E9, 0.0, 2024-02-26 13:10:28.401
156.0, 19.634474767372012, -6334.694903546944, 1114.4527877960354, 1173.3057234487496, 0.0, 0.0, 0.0, 0.0, 0.0, 0.0, 0.0, 0.0, 1.708981828401719E9, 0.0, 2024-02-26 13:10:28.401
157.0, 23.651127319782972, -6368.623275944963, 1216.237904990092, 1221.8982435730286, 0.0, 0.0, 0.0, 0.0, 0.0, 0.0, 0.0, 0.0, 1.708981828433503E9, 0.0, 2024-02-26 13:10:28.433
157.0, 25.034890303388238, -6423.857858390547, 1270.4701942475513, 1218.9886014075018, 0.0, 0.0, 0.0, 0.0, 0.0, 0.0, 0.0, 0.0, 1.708981828433503E9, 0.0, 2024-02-26 13:10:28.433
158.0, 24.672120007686317, -6482.90339889098, 1311.8821064569056, 1210.0091016138904, 0.0, 0.0, 0.0, 0.0, 0.0, 0.0, 0.0, 0.0, 1.708981828436319E9, 0.0, 2024-02-26 13:10:28.436
158.0, 41.86444010399282, -6517.2169809844345, 1404.8934183549136, 1255.3516486766748, 0.0, 0.0, 0.0, 0.0, 0.0, 0.0, 0.0, 0.0, 1.708981828436319E9, 0.0, 2024-02-26 13:10:28.436
159.0, 66.42810301296413, -6546.616334536113, 1485.67151749786, 1275.936058032792, 0.0, 0.0, 0.0, 0.0, 0.0, 0.0, 0.0, 0.0, 1.708981828439411E9, 0.0, 2024-02-26 13:10:28.439
159.0, 95.09817607328296, -6592.620843891054, 1555.0765808755532, 1265.890686751809, 0.0, 0.0, 0.0, 0.0, 0.0, 0.0, 0.0, 0.0, 1.708981828439411E9, 0.0, 2024-02-26 13:10:28.439
160.0, 59.83465939108282, -6647.668431338854, 1613.5760959824547, 1280.771748675499, 0.0, 0.0, 0.0, 0.0, 0.0, 0.0, 0.0, 0.0, 1.708981828442435E9, 0.0, 2024-02-26 13:10:28.442
160.0, 28.647633660584688, -6683.092763719149, 1677.0047992309555, 1309.8232915312983, 0.0, 0.0, 0.0, 0.0, 0.0, 0.0, 0.0, 0.0, 1.708981828442435E9, 0.0, 2024-02-26 13:10:28.442
161.0, 30.042616344057024, -6740.94153623376, 1697.8098626844585, 1303.989047600422, 0.0, 0.0, 0.0, 0.0, 0.0, 0.0, 0.0, 0.0, 1.708981828446321E9, 0.0, 2024-02-26 13:10:28.446
161.0, 30.18847244232893, -6789.006730464287, 1741.7836063634604, 1299.0112407593988, 0.0, 0.0, 0.0, 0.0, 0.0, 0.0, 0.0, 0.0, 1.708981828446321E9, 0.0, 2024-02-26 13:10:28.446
162.0, 22.11402843799442, -6815.156110954471, 1836.1899009449407, 1347.3270082869567, 0.0, 0.0, 0.0, 0.0, 0.0, 0.0, 0.0, 0.0, 1.708981828461838E9, 0.0, 2024-02-26 13:10:28.461
162.0, 27.592981873080134, -6874.003436757252, 1876.3788658687845, 1344.2939494228922, 0.0, 0.0, 0.0, 0.0, 0.0, 0.0, 0.0, 0.0, 1.708981828461838E9, 0.0, 2024-02-26 13:10:28.461
163.0, 22.58151593245566, -6938.670046891086, 1920.6518015442416, 1335.3668082286604, 0.0, 0.0, 0.0, 0.0, 0.0, 0.0, 0.0, 0.0, 1.70898182847778E9, 0.0, 2024-02-26 13:10:28.477
163.0, 34.16772599518299, -6954.6057606022805, 2015.708838718012, 1378.1699632215314, 0.0, 0.0, 0.0, 0.0, 0.0, 0.0, 0.0, 0.0, 1.70898182847778E9, 0.0, 2024-02-26 13:10:28.477
164.0, 11.040184669196606, -6984.44642234873, 2048.754594726488, 1378.0128874233924, 0.0, 0.0, 0.0, 0.0, 0.0, 0.0, 0.0, 0.0, 1.708981828492263E9, 0.0, 2024-02-26 13:10:28.492
164.0, 12.349149653688073, -7018.356095246971, 2059.813478895463, 1358.8272006507032, 0.0, 0.0, 0.0, 0.0, 0.0, 0.0, 0.0, 0.0, 1.708981828492263E9, 0.0, 2024-02-26 13:10:28.492
165.0, 4.214867250062525, -7050.1377650704235, 2137.9138096701354, 1380.7243148912676, 0.0, 0.0, 0.0, 0.0, 0.0, 0.0, 0.0, 0.0, 1.708981828495188E9, 0.0, 2024-02-26 13:10:28.495
165.0, 8.351196601055562, -7084.279311765917, 2203.7023897906765, 1407.034511079546, 0.0, 0.0, 0.0, 0.0, 0.0, 0.0, 0.0, 0.0, 1.708981828495188E9, 0.0, 2024-02-26 13:10:28.495
166.0, 3.9268949534744024, -7126.622459064238, 2251.9844982186332, 1396.3720563058741, 0.0, 0.0, 0.0, 0.0, 0.0, 0.0, 0.0, 0.0, 1.708981828507614E9, 0.0, 2024-02-26 13:10:28.507
166.0, -6.084817227907479, -7172.518511320464, 2287.9585958924145, 1383.0318331639282, 0.0, 0.0, 0.0, 0.0, 0.0, 0.0, 0.0, 0.0, 1.708981828507614E9, 0.0, 2024-02-26 13:10:28.507
167.0, -0.605863792821765, -7199.427091501653, 2364.136618089862, 1426.066861954052, 0.0, 0.0, 0.0, 0.0, 0.0, 0.0, 0.0, 0.0, 1.708981828510427E9, 0.0, 2024-02-26 13:10:28.510
167.0, -0.22813389729708433, -7233.04505220335, 2404.8267296077684, 1421.4667850085534, 0.0, 0.0, 0.0, 0.0, 0.0, 0.0, 0.0, 0.0, 1.708981828510427E9, 0.0, 2024-02-26 13:10:28.510
168.0, -8.010865705087781, -7279.479650053196, 2419.917225928977, 1401.993125939276, 0.0, 0.0, 0.0, 0.0, 0.0, 0.0, 0.0, 0.0, 1.70898182852138E9, 0.0, 2024-02-26 13:10:28.521
168.0, -6.2979915253818035, -7297.846298735589, 2496.588914920576, 1441.1162193757482, 0.0, 0.0, 0.0, 0.0, 0.0, 0.0, 0.0, 0.0, 1.70898182852138E9, 0.0, 2024-02-26 13:10:28.521
169.0, 4.065271251834929, -7328.666814270429, 2537.832531631924, 1450.3425525664352, 0.0, 0.0, 0.0, 0.0, 0.0, 0.0, 0.0, 0.0, 1.708981828537669E9, 0.0, 2024-02-26 13:10:28.537
169.0, -4.719753744080663, -7372.63307814952, 2553.2670987490565, 1427.514203236904, 0.0, 0.0, 0.0, 0.0, 0.0, 0.0, 0.0, 0.0, 1.708981828537669E9, 0.0, 2024-02-26 13:10:28.537
170.0, -3.0405386639758945, -7398.569284342229, 2607.0692995116115, 1445.256288626697, 0.0, 0.0, 0.0, 0.0, 0.0, 0.0, 0.0, 0.0, 1.70898182854078E9, 0.0, 2024-02-26 13:10:28.540
170.0, 1.0135128879919648, -7420.784290079027, 2661.8326545627788, 1473.1297629964538, 0.0, 0.0, 0.0, 0.0, 0.0, 0.0, 0.0, 0.0, 1.70898182854078E9, 0.0, 2024-02-26 13:10:28.540
171.0, 2.2813389729708433, -7456.679849853739, 2681.8710385253653, 1458.0579661750235, 0.0, 0.0, 0.0, 0.0, 0.0, 0.0, 0.0, 0.0, 1.708981828551546E9, 0.0, 2024-02-26 13:10:28.551
171.0, -3.0704578636214137, -7495.9450594885275, 2700.4284221054986, 1450.514587964397, 0.0, 0.0, 0.0, 0.0, 0.0, 0.0, 0.0, 0.0, 1.708981828551546E9, 0.0, 2024-02-26 13:10:28.551
172.0, 5.273258937522769, -7515.377579658292, 2769.8970637824386, 1490.396881091874, 0.0, 0.0, 0.0, 0.0, 0.0, 0.0, 0.0, 0.0, 1.708981828567451E9, 0.0, 2024-02-26 13:10:28.567
172.0, -0.7554597910493612, -7552.211854321882, 2802.082642801106, 1482.8497629812919, 0.0, 0.0, 0.0, 0.0, 0.0, 0.0, 0.0, 0.0, 1.708981828567451E9, 0.0, 2024-02-26 13:10:28.567
173.0, -12.726879549212754, -7589.1732855839655, 2818.302588908933, 1470.4669542280026, 0.0, 0.0, 0.0, 0.0, 0.0, 0.0, 0.0, 0.0, 1.708981828570692E9, 0.0, 2024-02-26 13:10:28.570
173.0, 2.131742974743247, -7605.180057394318, 2866.326644239947, 1508.8345878734253, 0.0, 0.0, 0.0, 0.0, 0.0, 0.0, 0.0, 0.0, 1.708981828570692E9, 0.0, 2024-02-26 13:10:28.570
