%OpenBCI Raw EXG Data
%Number of channels = 4
%Sample Rate = 200 Hz
%Board = OpenBCI_GUI$BoardGanglionBLE
Sample Index, EXG Channel 0, EXG Channel 1, EXG Channel 2, EXG Channel 3, Accel Channel 0, Accel Channel 1, Accel Channel 2, Other, Other, Other, Other, Other, Timestamp, Other, Timestamp (Formatted)
0.0, 0.5703347432427108, 9.680731035303324, -3.22753366176039, 2.8834628658369184, 0.0, 0.0, 0.0, 0.0, 0.0, 0.0, 0.0, 0.0, 1.708981808212379E9, 0.0, 2024-02-26 13:10:08.212
1.0, 11.823693709913641, 20.34692570893094, 17.558830291964114, 30.54002303816378, 0.0, 0.35200001671910286, 0.0, 0.0, 0.0, 0.0, 0.0, 0.0, 1.708981808222533E9, 0.0, 2024-02-26 13:10:08.222
1.0, 8.895352044608444, 15.993682160507888, 11.739545960910618, 23.123801426030695, 0.0, 0.35200001671910286, 0.0, 0.0, 0.0, 0.0, 0.0, 0.0, 1.708981808222533E9, 0.0, 2024-02-26 13:10:08.222
2.0, 4.572027695830911, 6.382139274384826, -1.0770911872386932, -1.6567756803706288, -0.17600000835955143, 0.35200001671910286, 0.0, 0.0, 0.0, 0.0, 0.0, 0.0, 1.708981808241955E9, 0.0, 2024-02-26 13:10:08.241
2.0, 11.135552118066698, 13.09151979489252, 26.706625583581626, 27.196552477777004, -0.17600000835955143, 0.35200001671910286, 0.0, 0.0, 0.0, 0.0, 0.0, 0.0, 1.708981808241955E9, 0.0, 2024-02-26 13:10:08.241
3.0, 8.962670243810862, 15.859045762103051, 19.866348564624786, 25.263024200685322, -0.17600000835955143, 0.35200001671910286, 0.0, 0.0, 0.0, 0.0, 0.0, 0.0, 1.708981808245396E9, 0.0, 2024-02-26 13:10:08.245
3.0, 6.4195382739417255, 5.151712188962847, -1.7577529791742563, -0.4787071943283081, -0.17600000835955143, 0.35200001671910286, 0.0, 0.0, 0.0, 0.0, 0.0, 0.0, 1.708981808245396E9, 0.0, 2024-02-26 13:10:08.245
4.0, 11.834913409780711, 12.616552500519902, 8.201600602827966, 12.603462850674987, -0.17600000835955143, 0.35200001671910286, 0.0, 0.0, 0.0, 0.0, 0.0, 0.0, 1.708981808250915E9, 0.0, 2024-02-26 13:10:08.250
4.0, 11.90597150893882, 14.70341667579487, 19.813989965245128, 32.67176601290703, -0.17600000835955143, 0.35200001671910286, 0.0, 0.0, 0.0, 0.0, 0.0, 0.0, 1.708981808250915E9, 0.0, 2024-02-26 13:10:08.250
5.0, 13.211196593474597, 9.748049234505743, 6.664501721039414, 15.408387817442417, -0.17600000835955143, 0.35200001671910286, 0.0, 0.0, 0.0, 0.0, 0.0, 0.0, 1.708981808266725E9, 0.0, 2024-02-26 13:10:08.266
5.0, 9.613412836100906, 7.470450161490589, 0.2056944975629449, 4.693574444390833, -0.17600000835955143, 0.35200001671910286, 0.0, 0.0, 0.0, 0.0, 0.0, 0.0, 1.708981808266725E9, 0.0, 2024-02-26 13:10:08.266
6.0, 14.830573274288327, 14.998868772294372, 23.505271221511066, 35.34579448122531, -0.17600000835955143, 0.35200001671910286, 0.0, 0.0, 0.0, 0.0, 0.0, 0.0, 1.7089818082694E9, 0.0, 2024-02-26 13:10:08.269
6.0, 11.49832241376862, 13.89185838541016, 10.666194673627615, 22.383301234804094, -0.17600000835955143, 0.35200001671910286, 0.0, 0.0, 0.0, 0.0, 0.0, 0.0, 1.7089818082694E9, 0.0, 2024-02-26 13:10:08.269
7.0, 3.053628313820809, 6.9431242677383125, -1.7427933793514967, -1.6268564807251096, -0.17600000835955143, 0.35200001671910286, 0.0, 0.0, 0.0, 0.0, 0.0, 0.0, 1.708981808280905E9, 0.0, 2024-02-26 13:10:08.280
7.0, 9.299261239822954, 13.562747189309448, 15.67766061425209, 22.727372030727565, -0.17600000835955143, 0.35200001671910286, 0.0, 0.0, 0.0, 0.0, 0.0, 0.0, 1.708981808280905E9, 0.0, 2024-02-26 13:10:08.280
8.0, 14.6547979763709, 12.994282396044582, 21.923293540254235, 26.284016888588667, -0.17600000835955143, 0.35200001671910286, 0.0, 0.0, 0.0, 0.0, 0.0, 0.0, 1.708981808296547E9, 0.0, 2024-02-26 13:10:08.296
8.0, 6.206363976467401, 3.9212851035408676, 6.44010772369802, 0.7218006914481521, -0.17600000835955143, 0.35200001671910286, 0.0, 0.0, 0.0, 0.0, 0.0, 0.0, 1.708981808296547E9, 0.0, 2024-02-26 13:10:08.296
9.0, 8.973889943677932, 9.725609834771603, 16.276044607162476, 13.549657539464533, -0.17600000835955143, 0.35200001671910286, 0.0, 0.0, 0.0, 0.0, 0.0, 0.0, 1.708981808299888E9, 0.0, 2024-02-26 13:10:08.299
9.0, 13.061600595247, 13.701123487669975, 27.245171177200973, 28.288603264838457, -0.17600000835955143, 0.35200001671910286, 0.0, 0.0, 0.0, 0.0, 0.0, 0.0, 1.708981808299888E9, 0.0, 2024-02-26 13:10:08.299
10.0, 6.513035772833973, 7.769642157945782, 9.933174282312393, 14.90724122337997, -0.17600000835955143, 0.35200001671910286, 0.9760000463575125, 0.0, 0.0, 0.0, 0.0, 0.0, 1.708981808311581E9, 0.0, 2024-02-26 13:10:08.311
10.0, 5.1704116887412965, 0.9630242385901511, 1.6268564807251096, 1.1070103868842125, -0.17600000835955143, 0.35200001671910286, 0.9760000463575125, 0.0, 0.0, 0.0, 0.0, 0.0, 1.708981808311581E9, 0.0, 2024-02-26 13:10:08.311
11.0, 14.651058076415211, 9.901385132689029, 29.193659054115415, 37.14468635991216, -0.17600000835955143, 0.03200000151991844, 0.9760000463575125, 0.0, 0.0, 0.0, 0.0, 0.0, 1.708981808326949E9, 0.0, 2024-02-26 13:10:08.326
11.0, 11.46092341421172, 6.3783993744291365, 12.652081550098956, 18.826656376942992, -0.17600000835955143, 0.03200000151991844, 0.9760000463575125, 0.0, 0.0, 0.0, 0.0, 0.0, 1.708981808326949E9, 0.0, 2024-02-26 13:10:08.326
12.0, 4.654305494856089, -5.290088487323374, 1.8849095776677132, -9.465686787851155, 0.03200000151991844, 0.03200000151991844, 0.9760000463575125, 0.0, 0.0, 0.0, 0.0, 0.0, 1.708981808329801E9, 0.0, 2024-02-26 13:10:08.329
12.0, 8.27078875200823, -11.027095019351691, 16.87442860007286, 19.215605972334743, 0.03200000151991844, 0.03200000151991844, 0.9760000463575125, 0.0, 0.0, 0.0, 0.0, 0.0, 1.708981808329801E9, 0.0, 2024-02-26 13:10:08.329
13.0, 6.584093871992081, -13.405671391170472, 16.425640605390072, 17.222239295952022, 0.03200000151991844, 0.03200000151991844, 0.9760000463575125, 0.0, 0.0, 0.0, 0.0, 0.0, 1.708981808341159E9, 0.0, 2024-02-26 13:10:08.341
13.0, 10.092120030429214, 16.038560959976166, 8.336237001232803, 9.892035382799804, 0.03200000151991844, 0.03200000151991844, 0.9760000463575125, 0.0, 0.0, 0.0, 0.0, 0.0, 1.708981808341159E9, 0.0, 2024-02-26 13:10:08.341
14.0, 15.88148516183719, 22.770380880218, 18.684540178626776, 17.73086568992585, 0.03200000151991844, 0.03200000151991844, 0.9760000463575125, 0.0, 0.0, 0.0, 0.0, 0.0, 1.708981808356651E9, 0.0, 2024-02-26 13:10:08.356
14.0, 15.458876466844231, 19.48300881916657, 25.191966101527214, 35.4243323802948, 0.03200000151991844, 0.03200000151991844, 0.9760000463575125, 0.0, 0.0, 0.0, 0.0, 0.0, 1.708981808356651E9, 0.0, 2024-02-26 13:10:08.356
15.0, 10.776521722320467, 11.4684032141231, 15.733759113587439, 17.012804898433387, 0.03200000151991844, 0.03200000151991844, 0.9760000463575125, 0.0, 0.0, 0.0, 0.0, 0.0, 1.708981808359634E9, 0.0, 2024-02-26 13:10:08.359
15.0, 7.661185059230775, 13.86567908572033, 3.9717737529426813, 7.315244313329458, 0.03200000151991844, 0.03200000151991844, 0.9760000463575125, 0.0, 0.0, 0.0, 0.0, 0.0, 1.708981808359634E9, 0.0, 2024-02-26 13:10:08.359
16.0, 21.97004228970036, 26.33076563803479, 32.08086181990802, 45.15929196495563, 0.03200000151991844, 0.03200000151991844, 0.9760000463575125, 0.0, 0.0, 0.0, 0.0, 0.0, 1.708981808371268E9, 0.0, 2024-02-26 13:10:08.371
16.0, 12.811027298215777, 15.133505170699209, 18.632181579247117, 23.40429392270744, 0.03200000151991844, 0.03200000151991844, 0.9760000463575125, 0.0, 0.0, 0.0, 0.0, 0.0, 1.708981808371268E9, 0.0, 2024-02-26 13:10:08.371
17.0, 11.8386533097364, 12.208903405349702, 8.328757201321423, 9.316090789623559, 0.03200000151991844, 0.03200000151991844, 0.9760000463575125, 0.0, 0.0, 0.0, 0.0, 0.0, 1.708981808386993E9, 0.0, 2024-02-26 13:10:08.386
17.0, 21.15848399931565, 21.726948792580515, 30.914013033732772, 41.50914960820228, 0.03200000151991844, 0.03200000151991844, 0.9760000463575125, 0.0, 0.0, 0.0, 0.0, 0.0, 1.708981808386993E9, 0.0, 2024-02-26 13:10:08.386
18.0, 16.71922275191173, 19.636344717349857, 22.839569029398263, 42.032735601998866, 0.03200000151991844, 0.03200000151991844, 0.9760000463575125, 0.0, 0.0, 0.0, 0.0, 0.0, 1.708981808390383E9, 0.0, 2024-02-26 13:10:08.390
18.0, 5.01333589060232, 15.556113865692168, 9.69008078519255, 14.05828393343836, 0.03200000151991844, 0.03200000151991844, 0.9760000463575125, 0.0, 0.0, 0.0, 0.0, 0.0, 1.708981808390383E9, 0.0, 2024-02-26 13:10:08.390
19.0, 10.952297020237893, 22.68810308119282, 15.28871101886034, 24.825455905869603, 0.03200000151991844, 0.03200000151991844, 0.9760000463575125, 0.0, 0.0, 0.0, 0.0, 0.0, 1.708981808401034E9, 0.0, 2024-02-26 13:10:08.401
19.0, 12.912004597019404, 29.685455898288637, 24.253251212649047, 43.60723348334432, 0.03200000151991844, 0.03200000151991844, 0.9760000463575125, 0.0, 0.0, 0.0, 0.0, 0.0, 1.708981808401034E9, 0.0, 2024-02-26 13:10:08.401
20.0, 17.07825314765796, 27.695829121861607, 17.32695649471134, 23.853081917390227, 0.03200000151991844, 0.03200000151991844, 0.5120000243186951, 0.0, 0.0, 0.0, 0.0, 0.0, 1.708981808416533E9, 0.0, 2024-02-26 13:10:08.416
20.0, 12.575413601007313, 21.09116580011323, 11.051404369063675, 6.574744122102857, 0.03200000151991844, 0.03200000151991844, 0.5120000243186951, 0.0, 0.0, 0.0, 0.0, 0.0, 1.708981808416533E9, 0.0, 2024-02-26 13:10:08.416
21.0, 19.423170419875532, 26.988988030236214, 28.434459363110363, 43.82788758073002, 0.03200000151991844, 0.06400000303983688, 0.5120000243186951, 0.0, 0.0, 0.0, 0.0, 0.0, 1.708981808419598E9, 0.0, 2024-02-26 13:10:08.419
21.0, 16.061000359710306, 23.215428974945098, 23.909180416725576, 31.44507882744074, 0.03200000151991844, 0.06400000303983688, 0.5120000243186951, 0.0, 0.0, 0.0, 0.0, 0.0, 1.708981808419598E9, 0.0, 2024-02-26 13:10:08.419
22.0, 11.337506715673953, 13.783401286695153, 2.4047556715086102, 6.294251625426114, 0.03200000151991844, 0.06400000303983688, 0.5120000243186951, 0.0, 0.0, 0.0, 0.0, 0.0, 1.708981808430903E9, 0.0, 2024-02-26 13:10:08.430
22.0, 16.76410155138001, 19.18755672266707, 23.471612121909857, 28.344701764173806, 0.03200000151991844, 0.06400000303983688, 0.5120000243186951, 0.0, 0.0, 0.0, 0.0, 0.0, 1.708981808430903E9, 0.0, 2024-02-26 13:10:08.430
23.0, 16.6930434522219, 17.07077334774658, 23.146240825764835, 26.815082682296634, 0.03200000151991844, 0.06400000303983688, 0.5120000243186951, 0.0, 0.0, 0.0, 0.0, 0.0, 1.70898180844699E9, 0.0, 2024-02-26 13:10:08.446
23.0, 10.29407462803647, 15.402777967508882, 4.611296645365655, 5.407895335927606, 0.03200000151991844, 0.06400000303983688, 0.5120000243186951, 0.0, 0.0, 0.0, 0.0, 0.0, 1.70898180844699E9, 0.0, 2024-02-26 13:10:08.446
24.0, 14.045194283593446, 12.130365506280214, 13.175667543895543, 15.516844916157424, 0.03200000151991844, 0.06400000303983688, 0.5120000243186951, 0.0, 0.0, 0.0, 0.0, 0.0, 1.708981808449935E9, 0.0, 2024-02-26 13:10:08.449
24.0, 15.724409363698214, 14.931550573091954, 26.265317388810217, 34.825948387384415, 0.03200000151991844, 0.06400000303983688, 0.5120000243186951, 0.0, 0.0, 0.0, 0.0, 0.0, 1.708981808449935E9, 0.0, 2024-02-26 13:10:08.449
25.0, 10.69424392329529, 8.046394754666835, 12.842816447839141, 14.450973428785801, 0.03200000151991844, 0.06400000303983688, 0.5120000243186951, 0.0, 0.0, 0.0, 0.0, 0.0, 1.70898180846127E9, 0.0, 2024-02-26 13:10:08.461
25.0, 5.922131579834968, 5.4920430849306285, 0.482447094283998, 3.9530742531642318, 0.03200000151991844, 0.06400000303983688, 0.5120000243186951, 0.0, 0.0, 0.0, 0.0, 0.0, 1.70898180846127E9, 0.0, 2024-02-26 13:10:08.461
26.0, 16.476129254791886, 13.293474392499775, 24.735698306933045, 36.015236573293805, 0.03200000151991844, 0.06400000303983688, 0.5120000243186951, 0.0, 0.0, 0.0, 0.0, 0.0, 1.708981808493192E9, 0.0, 2024-02-26 13:10:08.493
26.0, 12.631512100342661, 8.22590995253995, 17.113782197237015, 18.194613284431398, 0.03200000151991844, 0.06400000303983688, 0.5120000243186951, 0.0, 0.0, 0.0, 0.0, 0.0, 1.708981808493192E9, 0.0, 2024-02-26 13:10:08.493
27.0, 3.7567295054905117, 3.7305502058006823, 0.6694420920684934, -3.5529049579054117, 0.03200000151991844, 0.06400000303983688, 0.5120000243186951, 0.0, 0.0, 0.0, 0.0, 0.0, 1.708981808496044E9, 0.0, 2024-02-26 13:10:08.496
27.0, 11.958330108318478, 7.548988060560077, 21.152874149382114, 23.658607119694352, 0.03200000151991844, 0.06400000303983688, 0.5120000243186951, 0.0, 0.0, 0.0, 0.0, 0.0, 1.708981808496044E9, 0.0, 2024-02-26 13:10:08.496
28.0, 13.012981895823032, 13.581446689087898, 16.246125407516956, 24.89651400502771, 0.03200000151991844, 0.06400000303983688, 0.5120000243186951, 0.0, 0.0, 0.0, 0.0, 0.0, 1.708981808499005E9, 0.0, 2024-02-26 13:10:08.499
28.0, 3.5248557082377374, 5.110573289450258, -1.331404384225607, -2.741346667520702, 0.03200000151991844, 0.06400000303983688, 0.5120000243186951, 0.0, 0.0, 0.0, 0.0, 0.0, 1.708981808499005E9, 0.0, 2024-02-26 13:10:08.499
29.0, 8.985109643545002, 5.634159283246845, 6.814097719267011, 11.387995365075767, 0.03200000151991844, 0.06400000303983688, 0.5120000243186951, 0.0, 0.0, 0.0, 0.0, 0.0, 1.70898180850207E9, 0.0, 2024-02-26 13:10:08.502
29.0, 9.691950735170394, 10.970996520016342, 19.499838368967175, 29.8294420465827, 0.03200000151991844, 0.06400000303983688, 0.5120000243186951, 0.0, 0.0, 0.0, 0.0, 0.0, 1.70898180850207E9, 0.0, 2024-02-26 13:10:08.502
30.0, 12.044347807299346, 11.782554810401052, 0.35529049579054117, 10.47919967584312, 0.03200000151991844, 0.06400000303983688, 0.7680000364780426, 0.0, 0.0, 0.0, 0.0, 0.0, 1.708981808505908E9, 0.0, 2024-02-26 13:10:08.505
30.0, 7.889318956527859, 4.23543669981882, 2.449634470976889, -2.00458637624979, 0.03200000151991844, 0.06400000303983688, 0.7680000364780426, 0.0, 0.0, 0.0, 0.0, 0.0, 1.708981808505908E9, 0.0, 2024-02-26 13:10:08.505
31.0, 18.207702934276313, 17.15305114677176, 29.81822234671563, 30.027656744234264, 0.03200000151991844, 0.06400000303983688, 0.7680000364780426, 0.0, 0.0, 0.0, 0.0, 0.0, 1.708981808520917E9, 0.0, 2024-02-26 13:10:08.520
31.0, 18.74998842785135, 11.704016911331564, 19.043570574373007, 19.634474767372012, 0.03200000151991844, 0.06400000303983688, 0.7680000364780426, 0.0, 0.0, 0.0, 0.0, 0.0, 1.708981808520917E9, 0.0, 2024-02-26 13:10:08.520
32.0, 11.393605215009302, 8.794374745804816, 1.4398614829406142, -4.383162748068571, 0.03200000151991844, 0.06400000303983688, 0.7680000364780426, 0.0, 0.0, 0.0, 0.0, 0.0, 1.708981808537091E9, 0.0, 2024-02-26 13:10:08.537
32.0, 16.588326253462583, 14.983909172471613, 25.629534396342933, 24.54496340919286, 0.03200000151991844, 0.06400000303983688, 0.7680000364780426, 0.0, 0.0, 0.0, 0.0, 0.0, 1.708981808537091E9, 0.0, 2024-02-26 13:10:08.537
33.0, 14.116252382751554, 13.585186589043587, 24.372928011231124, 24.51504420954734, 0.03200000151991844, 0.06400000303983688, 0.7680000364780426, 0.0, 0.0, 0.0, 0.0, 0.0, 1.708981808539698E9, 0.0, 2024-02-26 13:10:08.539
33.0, 10.062200830783695, 4.553328196052462, 4.342023848555982, 1.9073489774018526, 0.03200000151991844, 0.06400000303983688, 0.7680000364780426, 0.0, 0.0, 0.0, 0.0, 0.0, 1.708981808539698E9, 0.0, 2024-02-26 13:10:08.539
34.0, 11.187910717446357, 10.798961122054607, 9.858376283198595, 7.835090407170355, 0.03200000151991844, 0.06400000303983688, 0.7680000364780426, 0.0, 0.0, 0.0, 0.0, 0.0, 1.708981808551287E9, 0.0, 2024-02-26 13:10:08.551
34.0, 14.617398976814002, 17.343786044511944, 17.536390892229974, 25.244324700906873, 0.03200000151991844, 0.06400000303983688, 0.7680000364780426, 0.0, 0.0, 0.0, 0.0, 0.0, 1.708981808551287E9, 0.0, 2024-02-26 13:10:08.551
35.0, 15.0624470715411, 11.06823391886428, 15.68514041416347, 5.591150433756411, 0.03200000151991844, 0.06400000303983688, 0.7680000364780426, 0.0, 0.0, 0.0, 0.0, 0.0, 1.70898180856675E9, 0.0, 2024-02-26 13:10:08.566
35.0, 11.0981531185098, 11.558160813059658, 4.536498646251857, -6.077337427996099, 0.03200000151991844, 0.06400000303983688, 0.7680000364780426, 0.0, 0.0, 0.0, 0.0, 0.0, 1.70898180856675E9, 0.0, 2024-02-26 13:10:08.566
36.0, 16.69678335217759, 25.11529815243557, 26.377514387480915, 24.60854170843959, 0.03200000151991844, 0.06400000303983688, 0.7680000364780426, 0.0, 0.0, 0.0, 0.0, 0.0, 1.708981808569632E9, 0.0, 2024-02-26 13:10:08.569
36.0, 13.47672949032858, 18.36477873241529, 15.457006516866386, 7.689234308898449, 0.03200000151991844, 0.06400000303983688, 0.7680000364780426, 0.0, 0.0, 0.0, 0.0, 0.0, 1.708981808569632E9, 0.0, 2024-02-26 13:10:08.569
37.0, 16.498568654526025, 9.718130034860224, 6.253112725913525, -12.539884551428258, 0.03200000151991844, 0.06400000303983688, 0.7680000364780426, 0.0, 0.0, 0.0, 0.0, 0.0, 1.708981808580964E9, 0.0, 2024-02-26 13:10:08.580
37.0, 25.474328548181802, 18.447056531440467, 32.46981141529977, 26.302716388367116, 0.03200000151991844, 0.06400000303983688, 0.7680000364780426, 0.0, 0.0, 0.0, 0.0, 0.0, 1.708981808580964E9, 0.0, 2024-02-26 13:10:08.580
38.0, 28.133397416677326, 16.909957649651915, 39.74391682911664, 23.217298924922943, 0.03200000151991844, 0.06400000303983688, 0.7680000364780426, 0.0, 0.0, 0.0, 0.0, 0.0, 1.708981808596908E9, 0.0, 2024-02-26 13:10:08.596
38.0, 18.405917631927878, 8.764455546159297, 19.496098469011486, 9.050557892769575, 0.03200000151991844, 0.06400000303983688, 0.7680000364780426, 0.0, 0.0, 0.0, 0.0, 0.0, 1.708981808596908E9, 0.0, 2024-02-26 13:10:08.596
39.0, 20.152450911235064, 24.094305464532226, 33.34494800493121, 26.280276988632977, 0.03200000151991844, 0.06400000303983688, 0.7680000364780426, 0.0, 0.0, 0.0, 0.0, 0.0, 1.708981808600923E9, 0.0, 2024-02-26 13:10:08.600
39.0, 37.24005380878225, 44.95920731732622, 49.11610611807555, 72.98040773533285, 0.03200000151991844, 0.06400000303983688, 0.7680000364780426, 0.0, 0.0, 0.0, 0.0, 0.0, 1.708981808600923E9, 0.0, 2024-02-26 13:10:08.600
40.0, 35.8862100248225, 50.22124655498192, 37.54859555512667, 79.49157355818897, 0.03200000151991844, 0.06400000303983688, 0.8960000425577164, 0.0, 0.0, 0.0, 0.0, 0.0, 1.708981808611249E9, 0.0, 2024-02-26 13:10:08.611
40.0, 28.196975715924054, 44.1513889268972, 25.214405501261353, 67.49023460038006, 0.03200000151991844, 0.06400000303983688, 0.8960000425577164, 0.0, 0.0, 0.0, 0.0, 0.0, 1.708981808611249E9, 0.0, 2024-02-26 13:10:08.611
41.0, 27.811766020487994, 35.23172753257677, 43.704470882192254, 78.66131576802582, 0.03200000151991844, 0.06400000303983688, 0.8960000425577164, 0.0, 0.0, 0.0, 0.0, 0.0, 1.708981808626746E9, 0.0, 2024-02-26 13:10:08.626
41.0, 22.628264681901783, 28.122177716810256, 27.118014578707516, 57.57201991789043, 0.03200000151991844, 0.06400000303983688, 0.8960000425577164, 0.0, 0.0, 0.0, 0.0, 0.0, 1.708981808626746E9, 0.0, 2024-02-26 13:10:08.626
42.0, 18.200223134364933, 12.122885706368834, 15.28123121894896, 27.03573677968234, 0.04800000227987766, 0.06400000303983688, 0.8960000425577164, 0.0, 0.0, 0.0, 0.0, 0.0, 1.708981808629634E9, 0.0, 2024-02-26 13:10:08.629
42.0, 15.443916867021471, 20.904170802328736, 36.13491337187588, 59.04180060047656, 0.04800000227987766, 0.06400000303983688, 0.8960000425577164, 0.0, 0.0, 0.0, 0.0, 0.0, 1.708981808629634E9, 0.0, 2024-02-26 13:10:08.629
43.0, 13.49542899010703, 15.099846071098, 27.439645974896848, 49.48261631373316, 0.04800000227987766, 0.06400000303983688, 0.8960000425577164, 0.0, 0.0, 0.0, 0.0, 0.0, 1.708981808640972E9, 0.0, 2024-02-26 13:10:08.640
43.0, 11.640438612084836, 13.368272391613573, 8.564370898529887, 25.7529510948807, 0.04800000227987766, 0.06400000303983688, 0.8960000425577164, 0.0, 0.0, 0.0, 0.0, 0.0, 1.708981808640972E9, 0.0, 2024-02-26 13:10:08.640
44.0, 14.557560577522963, 17.025894548278302, 24.051296615041792, 43.87650628015399, 0.04800000227987766, 0.06400000303983688, 0.8960000425577164, 0.0, 0.0, 0.0, 0.0, 0.0, 1.708981808656568E9, 0.0, 2024-02-26 13:10:08.656
44.0, 13.85445938585326, 20.25342821003869, 33.82739509921521, 54.74465555138886, 0.04800000227987766, 0.06400000303983688, 0.8960000425577164, 0.0, 0.0, 0.0, 0.0, 0.0, 1.708981808656568E9, 0.0, 2024-02-26 13:10:08.656
45.0, 12.796067698393017, 13.86193918576464, 21.579222744330764, 36.74825696460903, 0.04800000227987766, 0.06400000303983688, 0.8960000425577164, 0.0, 0.0, 0.0, 0.0, 0.0, 1.708981808659689E9, 0.0, 2024-02-26 13:10:08.659
45.0, 11.640438612084836, 8.62607924779877, 6.44384762365371, 21.063116550445557, 0.04800000227987766, 0.06400000303983688, 0.8960000425577164, 0.0, 0.0, 0.0, 0.0, 0.0, 1.708981808659689E9, 0.0, 2024-02-26 13:10:08.659
46.0, 18.121685235295445, 20.107572111766785, 31.302962629124522, 53.63764516450465, 0.04800000227987766, 0.06400000303983688, 0.8960000425577164, 0.0, 0.0, 0.0, 0.0, 0.0, 1.708981808670903E9, 0.0, 2024-02-26 13:10:08.670
46.0, 12.358499403577298, 7.511589061003178, 20.674166955053806, 39.03707573749125, 0.04800000227987766, 0.06400000303983688, 0.8960000425577164, 0.0, 0.0, 0.0, 0.0, 0.0, 1.708981808670903E9, 0.0, 2024-02-26 13:10:08.670
47.0, 12.515575201716274, 3.4837168087251484, 4.947887641377747, 16.5266179041937, 0.04800000227987766, 0.06400000303983688, 0.8960000425577164, 0.0, 0.0, 0.0, 0.0, 0.0, 1.708981808686691E9, 0.0, 2024-02-26 13:10:08.686
47.0, 19.696183116640896, 10.193097329232842, 32.69046551268548, 50.00994220748544, 0.04800000227987766, 0.06400000303983688, 0.8960000425577164, 0.0, 0.0, 0.0, 0.0, 0.0, 1.708981808686691E9, 0.0, 2024-02-26 13:10:08.686
48.0, 19.05292032426223, 10.65684492373839, 32.69046551268548, 45.03587526641786, 0.04800000227987766, 0.06400000303983688, 0.8960000425577164, 0.0, 0.0, 0.0, 0.0, 0.0, 1.708981808689604E9, 0.0, 2024-02-26 13:10:08.689
48.0, 11.195390517357737, 9.250642540398985, 10.785871472209692, 20.51709115691483, 0.04800000227987766, 0.06400000303983688, 0.8960000425577164, 0.0, 0.0, 0.0, 0.0, 0.0, 1.708981808689604E9, 0.0, 2024-02-26 13:10:08.689
49.0, 13.633805288467556, 10.219276628922671, 17.211019596084952, 29.81448244675994, 0.04800000227987766, 0.06400000303983688, 0.8960000425577164, 0.0, 0.0, 0.0, 0.0, 0.0, 1.708981808701292E9, 0.0, 2024-02-26 13:10:08.701
49.0, 12.321100404020399, 13.86941898567602, 23.445432822220027, 45.735236558131874, 0.04800000227987766, 0.06400000303983688, 0.8960000425577164, 0.0, 0.0, 0.0, 0.0, 0.0, 1.708981808701292E9, 0.0, 2024-02-26 13:10:08.701
50.0, 12.788587898481637, 10.63814542395994, 22.746071530506015, 27.544363173656166, 0.04800000227987766, 0.06400000303983688, 0.944000044837594, 0.0, 0.0, 0.0, 0.0, 0.0, 1.708981808716747E9, 0.0, 2024-02-26 13:10:08.716
50.0, 5.690257782582194, 6.610273171681911, 8.152981903403997, 18.706979578360915, 0.04800000227987766, 0.06400000303983688, 0.944000044837594, 0.0, 0.0, 0.0, 0.0, 0.0, 1.708981808716747E9, 0.0, 2024-02-26 13:10:08.716
51.0, 13.11021929467097, 10.421231226529926, 33.28510960564017, 44.57212767191231, 0.04800000227987766, 0.0800000037997961, 0.944000044837594, 0.0, 0.0, 0.0, 0.0, 0.0, 1.708981808719676E9, 0.0, 2024-02-26 13:10:08.719
51.0, 10.084640230517834, 12.814767198171467, 27.196552477777004, 31.35158132854849, 0.04800000227987766, 0.0800000037997961, 0.944000044837594, 0.0, 0.0, 0.0, 0.0, 0.0, 1.708981808719676E9, 0.0, 2024-02-26 13:10:08.719
52.0, 5.058214690070599, 5.43594458559528, 4.065271251834929, 9.495605987496674, 0.04800000227987766, 0.0800000037997961, 0.944000044837594, 0.0, 0.0, 0.0, 0.0, 0.0, 1.708981808730818E9, 0.0, 2024-02-26 13:10:08.730
52.0, 12.938183896709234, 8.940230844076723, 26.773943782784045, 37.32046165782958, 0.04800000227987766, 0.0800000037997961, 0.944000044837594, 0.0, 0.0, 0.0, 0.0, 0.0, 1.708981808730818E9, 0.0, 2024-02-26 13:10:08.730
53.0, 12.837206597905606, 10.555867624934763, 32.50347051490098, 41.662485506385565, 0.04800000227987766, 0.0800000037997961, 0.944000044837594, 0.0, 0.0, 0.0, 0.0, 0.0, 1.708981808746732E9, 0.0, 2024-02-26 13:10:08.746
53.0, 9.658291635569185, 5.3312273868359625, 17.30077719502151, 23.553889920935035, 0.04800000227987766, 0.0800000037997961, 0.944000044837594, 0.0, 0.0, 0.0, 0.0, 0.0, 1.708981808746732E9, 0.0, 2024-02-26 13:10:08.746
54.0, 8.491442849393934, 7.246056164149195, 17.405494393780828, 29.863101146183908, 0.04800000227987766, 0.0800000037997961, 0.944000044837594, 0.0, 0.0, 0.0, 0.0, 0.0, 1.70898180874978E9, 0.0, 2024-02-26 13:10:08.749
54.0, 5.544401684310287, 10.761562122497708, 17.35313579440117, 46.464517049491405, 0.04800000227987766, 0.0800000037997961, 0.944000044837594, 0.0, 0.0, 0.0, 0.0, 0.0, 1.70898180874978E9, 0.0, 2024-02-26 13:10:08.749
55.0, 6.071727578062564, 7.302154663484544, 10.423101176507771, 20.999538251198828, 0.04800000227987766, 0.0800000037997961, 0.944000044837594, 0.0, 0.0, 0.0, 0.0, 0.0, 1.708981808761353E9, 0.0, 2024-02-26 13:10:08.761
55.0, 5.664078482892364, 0.20756444754078984, 4.02787225227803, 8.942100794054568, 0.04800000227987766, 0.0800000037997961, 0.944000044837594, 0.0, 0.0, 0.0, 0.0, 0.0, 1.708981808761353E9, 0.0, 2024-02-26 13:10:08.761
56.0, 13.9142977851443, 10.851319721434265, 32.48477101512253, 45.20417076442391, 0.04800000227987766, 0.0800000037997961, 0.944000044837594, 0.0, 0.0, 0.0, 0.0, 0.0, 1.708981808777063E9, 0.0, 2024-02-26 13:10:08.777
56.0, 7.302154663484544, 8.835513645317405, 18.639661379158497, 31.605894525535405, 0.04800000227987766, 0.0800000037997961, 0.944000044837594, 0.0, 0.0, 0.0, 0.0, 0.0, 1.708981808777063E9, 0.0, 2024-02-26 13:10:08.777
57.0, 4.785201993305236, 3.7193305059336126, -1.0770911872386932, 7.1432089153677225, 0.04800000227987766, 0.0800000037997961, 0.944000044837594, 0.0, 0.0, 0.0, 0.0, 0.0, 1.708981808780237E9, 0.0, 2024-02-26 13:10:08.780
57.0, 13.570226989220828, 5.521962284576148, 21.76621774211526, 44.60952667146921, 0.04800000227987766, 0.0800000037997961, 0.944000044837594, 0.0, 0.0, 0.0, 0.0, 0.0, 1.708981808780237E9, 0.0, 2024-02-26 13:10:08.780
58.0, 11.88353210920468, 0.9892035382799804, 20.820023053325713, 39.07447473704815, 0.04800000227987766, 0.0800000037997961, 0.944000044837594, 0.0, 0.0, 0.0, 0.0, 0.0, 1.708981808791101E9, 0.0, 2024-02-26 13:10:08.791
58.0, 9.194544041063637, -3.2406233116053045, 5.441554435528815, 13.762831836938858, 0.04800000227987766, 0.0800000037997961, 0.944000044837594, 0.0, 0.0, 0.0, 0.0, 0.0, 1.708981808791101E9, 0.0, 2024-02-26 13:10:08.791
59.0, 11.565640612971038, 6.520515572745353, 15.202693319879472, 20.266517859883606, 0.04800000227987766, 0.0800000037997961, 0.944000044837594, 0.0, 0.0, 0.0, 0.0, 0.0, 1.708981808806551E9, 0.0, 2024-02-26 13:10:08.806
59.0, 9.03746824292466, 9.42641783831641, 20.685386654920876, 35.962877973914146, 0.04800000227987766, 0.0800000037997961, 0.944000044837594, 0.0, 0.0, 0.0, 0.0, 0.0, 1.708981808806551E9, 0.0, 2024-02-26 13:10:08.806
60.0, 6.610273171681911, 12.425817602779716, 12.06865715701133, 16.687433602288365, 0.04800000227987766, 0.0800000037997961, 0.9920000471174717, 0.0, 0.0, 0.0, 0.0, 0.0, 1.70898180880969E9, 0.0, 2024-02-26 13:10:08.809
60.0, 1.0677414373494685, 3.5547749078832567, 0.04861869942396879, 7.782731807790697, 0.04800000227987766, 0.0800000037997961, 0.9920000471174717, 0.0, 0.0, 0.0, 0.0, 0.0, 1.70898180880969E9, 0.0, 2024-02-26 13:10:08.809
61.0, 10.563347424846143, 8.861692945007235, 23.73714501876384, 41.52784910798073, 0.04800000227987766, 0.06400000303983688, 0.9920000471174717, 0.0, 0.0, 0.0, 0.0, 0.0, 1.70898180882106E9, 0.0, 2024-02-26 13:10:08.821
61.0, 8.435344350058585, 46.99745279317722, 11.982639458030462, 27.76875717099756, 0.04800000227987766, 0.06400000303983688, 0.9920000471174717, 0.0, 0.0, 0.0, 0.0, 0.0, 1.70898180882106E9, 0.0, 2024-02-26 13:10:08.821
62.0, 5.480823385063559, 66.84510185802355, 2.5917506692931056, 2.4645940707996488, 0.04800000227987766, 0.06400000303983688, 0.9920000471174717, 0.0, 0.0, 0.0, 0.0, 0.0, 1.708981808836784E9, 0.0, 2024-02-26 13:10:08.836
62.0, 14.72211617557332, 55.44214689312503, 25.569695997051895, 34.88952668663114, 0.04800000227987766, 0.06400000303983688, 0.9920000471174717, 0.0, 0.0, 0.0, 0.0, 0.0, 1.708981808836784E9, 0.0, 2024-02-26 13:10:08.836
63.0, 13.555267389398068, 9.130965741816908, 18.729418978095055, 66.98534810636193, 0.04800000227987766, 0.06400000303983688, 0.9920000471174717, 0.0, 0.0, 0.0, 0.0, 0.0, 1.70898180883968E9, 0.0, 2024-02-26 13:10:08.839
63.0, 4.478530196938664, 10.181877629365772, 4.656175444833934, 31.75175062380731, 0.04800000227987766, 0.06400000303983688, 0.9920000471174717, 0.0, 0.0, 0.0, 0.0, 0.0, 1.70898180883968E9, 0.0, 2024-02-26 13:10:08.839
64.0, 12.055567507166415, 4.508449396584183, 16.94548669923097, 34.17894569505006, 0.04800000227987766, 0.06400000303983688, 0.9920000471174717, 0.0, 0.0, 0.0, 0.0, 0.0, 1.708981808851062E9, 0.0, 2024-02-26 13:10:08.851
64.0, 13.192497093696147, 5.705217382404953, 21.77743744198233, 46.96940354350954, 0.04800000227987766, 0.06400000303983688, 0.9920000471174717, 0.0, 0.0, 0.0, 0.0, 0.0, 1.708981808851062E9, 0.0, 2024-02-26 13:10:08.851
65.0, 10.525948425289243, 2.3580069220624864, 17.386794894002378, 29.964078444987535, 0.04800000227987766, 0.06400000303983688, 0.9920000471174717, 0.0, 0.0, 0.0, 0.0, 0.0, 1.708981808866696E9, 0.0, 2024-02-26 13:10:08.866
65.0, 7.896798756439239, 0.686271641869098, 5.8978222301229835, 11.971419758163393, 0.04800000227987766, 0.06400000303983688, 0.9920000471174717, 0.0, 0.0, 0.0, 0.0, 0.0, 1.708981808866696E9, 0.0, 2024-02-26 13:10:08.866
66.0, 14.70341667579487, 5.088133889716119, 31.531096526421607, 45.656698659062386, 0.04800000227987766, 0.06400000303983688, 0.9920000471174717, 0.0, 0.0, 0.0, 0.0, 0.0, 1.708981808869631E9, 0.0, 2024-02-26 13:10:08.869
66.0, 12.567933801095933, 15.440176967065781, 18.841615976765752, 34.69131198897958, 0.04800000227987766, 0.06400000303983688, 0.9920000471174717, 0.0, 0.0, 0.0, 0.0, 0.0, 1.708981808869631E9, 0.0, 2024-02-26 13:10:08.869
67.0, 7.492889561224729, 62.323562811594456, -4.876829542219639, -0.6619622921571136, 0.04800000227987766, 0.06400000303983688, 0.9920000471174717, 0.0, 0.0, 0.0, 0.0, 0.0, 1.708981808880919E9, 0.0, 2024-02-26 13:10:08.880
67.0, 10.813920721877366, 40.58726426912472, 16.328403206542134, 32.028503220528364, 0.04800000227987766, 0.06400000303983688, 0.9920000471174717, 0.0, 0.0, 0.0, 0.0, 0.0, 1.708981808880919E9, 0.0, 2024-02-26 13:10:08.880
68.0, 10.611966124270111, 23.750234668608755, 20.423593658022583, 40.903285815380514, 0.04800000227987766, 0.06400000303983688, 0.9920000471174717, 0.0, 0.0, 0.0, 0.0, 0.0, 1.708981808896707E9, 0.0, 2024-02-26 13:10:08.896
68.0, 6.909465168137103, 7.148818765301257, -3.3285109605640173, 19.095929173752666, 0.04800000227987766, 0.06400000303983688, 0.9920000471174717, 0.0, 0.0, 0.0, 0.0, 0.0, 1.708981808896707E9, 0.0, 2024-02-26 13:10:08.896
69.0, 8.947710643988103, 12.930704096797854, 13.493559040129185, 21.609141943976283, 0.04800000227987766, 0.06400000303983688, 0.9920000471174717, 0.0, 0.0, 0.0, 0.0, 0.0, 1.708981808900717E9, 0.0, 2024-02-26 13:10:08.900
69.0, 8.532581748906523, 17.755175039637834, 24.294390112161636, 41.602647107094526, 0.04800000227987766, 0.06400000303983688, 0.9920000471174717, 0.0, 0.0, 0.0, 0.0, 0.0, 1.708981808900717E9, 0.0, 2024-02-26 13:10:08.900
70.0, 7.777121957857162, 9.699430535081774, 11.552550963126123, 24.283170412294567, 0.04800000227987766, 0.06400000303983688, 1.008000047877431, 0.0, 0.0, 0.0, 0.0, 0.0, 1.708981808911178E9, 0.0, 2024-02-26 13:10:08.911
70.0, 3.9960831026546657, 12.811027298215777, 3.541685258038342, 5.254559437744319, 0.04800000227987766, 0.06400000303983688, 1.008000047877431, 0.0, 0.0, 0.0, 0.0, 0.0, 1.708981808911178E9, 0.0, 2024-02-26 13:10:08.911
71.0, 16.547187353949994, 18.74998842785135, 34.18642549496144, 40.32360132224858, 0.04800000227987766, 0.06400000303983688, 1.008000047877431, 0.0, 0.0, 0.0, 0.0, 0.0, 1.708981808942376E9, 0.0, 2024-02-26 13:10:08.942
71.0, 12.721269699279219, 17.268988045398146, 19.230565572157502, 29.78456324711442, 0.04800000227987766, 0.06400000303983688, 1.008000047877431, 0.0, 0.0, 0.0, 0.0, 0.0, 1.708981808942376E9, 0.0, 2024-02-26 13:10:08.942
72.0, 0.21878414740785956, 8.121192753780633, 1.3014851845800877, 6.163355126976967, 0.04800000227987766, 0.06400000303983688, 1.008000047877431, 0.0, 0.0, 0.0, 0.0, 0.0, 1.708981808945155E9, 0.0, 2024-02-26 13:10:08.945
72.0, 10.810180821921676, 13.716083087492734, 24.417806810699403, 37.672012253664434, 0.04800000227987766, 0.06400000303983688, 1.008000047877431, 0.0, 0.0, 0.0, 0.0, 0.0, 1.708981808945155E9, 0.0, 2024-02-26 13:10:08.945
73.0, 12.459476702380925, 12.66143129998818, 21.912073840387166, 33.03453630860895, 0.04800000227987766, 0.06400000303983688, 1.008000047877431, 0.0, 0.0, 0.0, 0.0, 0.0, 1.708981808948234E9, 0.0, 2024-02-26 13:10:08.948
73.0, 5.118053089361638, -2.1523124244995415, 6.249372825957835, 3.429488259367645, 0.04800000227987766, 0.06400000303983688, 1.008000047877431, 0.0, 0.0, 0.0, 0.0, 0.0, 1.708981808948234E9, 0.0, 2024-02-26 13:10:08.948
74.0, 7.522808760870248, -9.86772603308782, 14.817483624443412, 18.16843398474157, 0.04800000227987766, 0.06400000303983688, 1.008000047877431, 0.0, 0.0, 0.0, 0.0, 0.0, 1.708981808956552E9, 0.0, 2024-02-26 13:10:08.956
74.0, 7.534028460737318, -4.171858400572091, 24.825455905869603, 32.08086181990802, 0.04800000227987766, 0.06400000303983688, 1.008000047877431, 0.0, 0.0, 0.0, 0.0, 0.0, 1.708981808956552E9, 0.0, 2024-02-26 13:10:08.956
75.0, 9.912604832556099, -0.8171681403182447, 9.817237383686006, 6.967433617450297, 0.04800000227987766, 0.06400000303983688, 1.008000047877431, 0.0, 0.0, 0.0, 0.0, 0.0, 1.708981808959538E9, 0.0, 2024-02-26 13:10:08.959
75.0, 1.0752212372608483, 0.31602154625579715, -0.1084570987150073, -11.874182359315455, 0.04800000227987766, 0.06400000303983688, 1.008000047877431, 0.0, 0.0, 0.0, 0.0, 0.0, 1.708981808959538E9, 0.0, 2024-02-26 13:10:08.959
76.0, 13.48794919019565, 11.120592518243939, 29.657406648620963, 14.712766425684094, 0.04800000227987766, 0.06400000303983688, 1.008000047877431, 0.0, 0.0, 0.0, 0.0, 0.0, 1.708981808970904E9, 0.0, 2024-02-26 13:10:08.970
76.0, 16.023601360153407, -0.8583070398308337, 16.83702960051596, 7.992166205309331, 0.04800000227987766, 0.06400000303983688, 1.008000047877431, 0.0, 0.0, 0.0, 0.0, 0.0, 1.708981808970904E9, 0.0, 2024-02-26 13:10:08.970
77.0, 7.9491573558188975, -0.884486339520663, 7.565817610360682, -14.278938030824065, 0.04800000227987766, 0.06400000303983688, 1.008000047877431, 0.0, 0.0, 0.0, 0.0, 0.0, 1.708981808987444E9, 0.0, 2024-02-26 13:10:08.987
77.0, 10.963516720104963, 1.0976606369949877, 25.898807193152606, 21.444586345925927, 0.04800000227987766, 0.06400000303983688, 1.008000047877431, 0.0, 0.0, 0.0, 0.0, 0.0, 1.708981808987444E9, 0.0, 2024-02-26 13:10:08.987
78.0, 10.357652927283198, -12.216383205261081, 24.96383220423013, 37.615913754329085, 0.04800000227987766, 0.06400000303983688, 1.008000047877431, 0.0, 0.0, 0.0, 0.0, 0.0, 1.708981808990344E9, 0.0, 2024-02-26 13:10:08.990
78.0, 7.657445159275085, -10.26415542839095, 10.299684477970004, -9.802277783863246, 0.04800000227987766, 0.06400000303983688, 1.008000047877431, 0.0, 0.0, 0.0, 0.0, 0.0, 1.708981808990344E9, 0.0, 2024-02-26 13:10:08.990
79.0, 14.25836858106777, -13.86941898567602, 21.467025745660067, 6.466287023387849, 0.04800000227987766, 0.06400000303983688, 1.008000047877431, 0.0, 0.0, 0.0, 0.0, 0.0, 1.708981809001267E9, 0.0, 2024-02-26 13:10:09.001
79.0, 13.798360886517912, -15.08488647127524, 26.863701381720603, 23.232258524745703, 0.04800000227987766, 0.06400000303983688, 1.008000047877431, 0.0, 0.0, 0.0, 0.0, 0.0, 1.708981809001267E9, 0.0, 2024-02-26 13:10:09.001
80.0, 13.49168909015134, -18.222662534099072, 21.3062100475654, 7.0609311163425446, 0.04800000227987766, 0.06400000303983688, 1.008000047877431, 0.0, 0.0, 0.0, 0.0, 0.0, 1.708981809016967E9, 0.0, 2024-02-26 13:10:09.016
80.0, 11.131812218111008, -23.858691767323762, 7.472320111468434, -1.0135128879919648, 0.04800000227987766, 0.06400000303983688, 1.008000047877431, 0.0, 0.0, 0.0, 0.0, 0.0, 1.708981809016967E9, 0.0, 2024-02-26 13:10:09.016
81.0, 13.521608289796859, 38.14136969810352, 35.28595608193427, 32.15565981902182, 0.04800000227987766, 0.06400000303983688, 1.008000047877431, 0.0, 0.0, 0.0, 0.0, 0.0, 1.708981809020175E9, 0.0, 2024-02-26 13:10:09.020
81.0, 11.752635610755533, 21.622231593821198, 26.15312039013952, 24.17471331357956, 0.04800000227987766, 0.06400000303983688, 1.008000047877431, 0.0, 0.0, 0.0, 0.0, 0.0, 1.708981809020175E9, 0.0, 2024-02-26 13:10:09.020
82.0, 12.725009599234909, 1.1051404369063675, 10.165048079565167, -0.6096036927774549, 0.04800000227987766, 0.06400000303983688, 1.008000047877431, 0.0, 0.0, 0.0, 0.0, 0.0, 1.708981809047378E9, 0.0, 2024-02-26 13:10:09.047
82.0, 19.08283952390775, 1.3370142341591418, 28.22876486554742, 29.03284335602075, 0.04800000227987766, 0.06400000303983688, 1.008000047877431, 0.0, 0.0, 0.0, 0.0, 0.0, 1.708981809047378E9, 0.0, 2024-02-26 13:10:09.047
83.0, 18.144124635029584, 2.5450019198469818, 25.502377797849476, 22.637614431791008, 0.04800000227987766, 0.06400000303983688, 1.008000047877431, 0.0, 0.0, 0.0, 0.0, 0.0, 1.70898180905033E9, 0.0, 2024-02-26 13:10:09.050
83.0, 11.229049616958946, -4.130719501059502, 10.49415927566588, 2.382316271774471, 0.04800000227987766, 0.06400000303983688, 1.008000047877431, 0.0, 0.0, 0.0, 0.0, 0.0, 1.70898180905033E9, 0.0, 2024-02-26 13:10:09.050
84.0, 14.090073083061725, 0.0018699499778449535, 17.947779887355864, 10.770911872386932, 0.04800000227987766, 0.06400000303983688, 1.008000047877431, 0.0, 0.0, 0.0, 0.0, 0.0, 1.708981809053376E9, 0.0, 2024-02-26 13:10:09.053
84.0, 13.185017293784767, 0.443178144749254, 23.482831821776927, 29.571388949640095, 0.04800000227987766, 0.06400000303983688, 1.008000047877431, 0.0, 0.0, 0.0, 0.0, 0.0, 1.708981809053376E9, 0.0, 2024-02-26 13:10:09.053
85.0, 11.651658311951905, -1.1350596365518868, 14.196660231798887, 7.491019611246884, 0.04800000227987766, 0.06400000303983688, 1.008000047877431, 0.0, 0.0, 0.0, 0.0, 0.0, 1.708981809060916E9, 0.0, 2024-02-26 13:10:09.060
85.0, 1.3856329335831106, -8.020215454977006, 3.986733352765441, -9.200153890997171, 0.04800000227987766, 0.06400000303983688, 1.008000047877431, 0.0, 0.0, 0.0, 0.0, 0.0, 1.708981809060916E9, 0.0, 2024-02-26 13:10:09.060
86.0, 13.764701786916703, 4.6131665953435, 23.838122317567468, 24.61976140830666, 0.04800000227987766, 0.06400000303983688, 1.008000047877431, 0.0, 0.0, 0.0, 0.0, 0.0, 1.708981809077234E9, 0.0, 2024-02-26 13:10:09.077
86.0, 11.659138111863285, 0.3534205458126962, 16.84450940042734, 5.718307032249868, 0.04800000227987766, 0.06400000303983688, 1.008000047877431, 0.0, 0.0, 0.0, 0.0, 0.0, 1.708981809077234E9, 0.0, 2024-02-26 13:10:09.077
87.0, 0.7311504413373768, -8.872912644874305, -0.6956213917583227, -17.080123097635806, 0.04800000227987766, 0.06400000303983688, 1.008000047877431, 0.0, 0.0, 0.0, 0.0, 0.0, 1.708981809080122E9, 0.0, 2024-02-26 13:10:09.080
87.0, 10.23049632878974, 2.376706421840936, 20.853682152926922, 12.87273564748466, 0.04800000227987766, 0.06400000303983688, 1.008000047877431, 0.0, 0.0, 0.0, 0.0, 0.0, 1.708981809080122E9, 0.0, 2024-02-26 13:10:09.080
88.0, 2.6796383182518184, 0.48431704426184297, 18.217052684165537, 13.018591745756567, 0.04800000227987766, 0.06400000303983688, 1.008000047877431, 0.0, 0.0, 0.0, 0.0, 0.0, 1.708981809091266E9, 0.0, 2024-02-26 13:10:09.091
88.0, -1.045302037615329, -6.774828769732267, -2.1878414740785956, -15.464486316777766, 0.04800000227987766, 0.06400000303983688, 1.008000047877431, 0.0, 0.0, 0.0, 0.0, 0.0, 1.708981809091266E9, 0.0, 2024-02-26 13:10:09.091
89.0, 3.177045012358576, -1.6773451301269233, 13.235505943186581, -0.4263485949486494, 0.04800000227987766, 0.06400000303983688, 1.008000047877431, 0.0, 0.0, 0.0, 0.0, 0.0, 1.708981809106854E9, 0.0, 2024-02-26 13:10:09.106
89.0, 10.772781822364777, -1.3183147343806922, 20.53579065669328, 19.155767573043704, 0.04800000227987766, 0.06400000303983688, 1.008000047877431, 0.0, 0.0, 0.0, 0.0, 0.0, 1.708981809106854E9, 0.0, 2024-02-26 13:10:09.106
90.0, 9.0225086431019, -2.3841862217523158, 10.340823377482593, 1.0733512872830033, 0.04800000227987766, 0.06400000303983688, 1.008000047877431, 0.0, 0.0, 0.0, 0.0, 0.0, 1.708981809109801E9, 0.0, 2024-02-26 13:10:09.109
90.0, 3.3528203102760017, -5.394805686082691, -0.007479799911379814, -14.256498631089926, 0.04800000227987766, 0.06400000303983688, 1.008000047877431, 0.0, 0.0, 0.0, 0.0, 0.0, 1.708981809109801E9, 0.0, 2024-02-26 13:10:09.109
91.0, 10.66058482369408, 5.462123885285109, 26.396213887259364, 19.836429364979267, 0.04800000227987766, 0.0800000037997961, 1.008000047877431, 0.0, 0.0, 0.0, 0.0, 0.0, 1.708981809120922E9, 0.0, 2024-02-26 13:10:09.120
91.0, 8.996329343412071, 1.6249865307472646, 14.394874929450452, 9.727479784749448, 0.04800000227987766, 0.0800000037997961, 1.008000047877431, 0.0, 0.0, 0.0, 0.0, 0.0, 1.708981809120922E9, 0.0, 2024-02-26 13:10:09.120
92.0, 4.673004994634539, -4.497229696717113, 5.662208532914519, -10.105209680274129, 0.04800000227987766, 0.0800000037997961, 1.008000047877431, 0.0, 0.0, 0.0, 0.0, 0.0, 1.70898180913672E9, 0.0, 2024-02-26 13:10:09.136
92.0, 14.553820677567273, -1.209857635665685, 19.974805663339794, 17.846802588552237, 0.04800000227987766, 0.0800000037997961, 1.008000047877431, 0.0, 0.0, 0.0, 0.0, 0.0, 1.70898180913672E9, 0.0, 2024-02-26 13:10:09.136
93.0, 14.800654074642807, 3.6033936073072255, 25.543516697362065, 20.255298160016537, 0.04800000227987766, 0.0800000037997961, 1.008000047877431, 0.0, 0.0, 0.0, 0.0, 0.0, 1.70898180913958E9, 0.0, 2024-02-26 13:10:09.139
93.0, 10.709203523118049, -4.179338200483471, 11.028964969329536, -6.963693717494607, 0.04800000227987766, 0.0800000037997961, 1.008000047877431, 0.0, 0.0, 0.0, 0.0, 0.0, 1.70898180913958E9, 0.0, 2024-02-26 13:10:09.139
94.0, 12.437037302646786, 0.8545671398751438, 22.96672562789172, 6.915075018070638, 0.04800000227987766, 0.0800000037997961, 1.008000047877431, 0.0, 0.0, 0.0, 0.0, 0.0, 1.708981809150961E9, 0.0, 2024-02-26 13:10:09.150
94.0, 10.043501331005245, 1.370673333760351, 25.928726392798126, 25.203185801394284, 0.04800000227987766, 0.0800000037997961, 1.008000047877431, 0.0, 0.0, 0.0, 0.0, 0.0, 1.708981809150961E9, 0.0, 2024-02-26 13:10:09.150
95.0, 14.628618676681072, -0.22252404736354947, 23.897960716858506, 10.636275473982096, 0.04800000227987766, 0.0800000037997961, 1.008000047877431, 0.0, 0.0, 0.0, 0.0, 0.0, 1.708981809166996E9, 0.0, 2024-02-26 13:10:09.166
95.0, 12.227602905128151, -5.918391679879278, 12.300530954264104, -1.6679953802376986, 0.04800000227987766, 0.0800000037997961, 1.008000047877431, 0.0, 0.0, 0.0, 0.0, 0.0, 1.708981809166996E9, 0.0, 2024-02-26 13:10:09.166
96.0, 20.3618853087537, 3.1583455125801265, 36.823054963722825, 25.539776797406375, 0.04800000227987766, 0.0800000037997961, 1.008000047877431, 0.0, 0.0, 0.0, 0.0, 0.0, 1.708981809170249E9, 0.0, 2024-02-26 13:10:09.170
96.0, 14.179830681998283, 1.7035244298167527, 27.675259672105312, 20.45725275762379, 0.04800000227987766, 0.0800000037997961, 1.008000047877431, 0.0, 0.0, 0.0, 0.0, 0.0, 1.708981809170249E9, 0.0, 2024-02-26 13:10:09.170
97.0, 10.739122722763568, -4.62064639525488, 8.680307797156274, -8.179161203093827, 0.04800000227987766, 0.0800000037997961, 1.008000047877431, 0.0, 0.0, 0.0, 0.0, 0.0, 1.7089818091813E9, 0.0, 2024-02-26 13:10:09.181
97.0, 13.51038858992979, 3.543555208016187, 21.455806045792997, 22.372081534937024, 0.04800000227987766, 0.0800000037997961, 1.008000047877431, 0.0, 0.0, 0.0, 0.0, 0.0, 1.7089818091813E9, 0.0, 2024-02-26 13:10:09.181
98.0, 12.044347807299346, 29.827572096604854, 31.00377063266933, 23.041523627005517, 0.04800000227987766, 0.0800000037997961, 1.008000047877431, 0.0, 0.0, 0.0, 0.0, 0.0, 1.708981809196808E9, 0.0, 2024-02-26 13:10:09.196
98.0, 10.873759121168405, 87.14527881750837, 14.802524024620652, 3.3135513607412577, 0.04800000227987766, 0.0800000037997961, 1.008000047877431, 0.0, 0.0, 0.0, 0.0, 0.0, 1.708981809196808E9, 0.0, 2024-02-26 13:10:09.196
99.0, 20.058953412342817, 21.5848325942643, 27.02825697977096, 24.89651400502771, 0.04800000227987766, 0.0800000037997961, 1.008000047877431, 0.0, 0.0, 0.0, 0.0, 0.0, 1.708981809199602E9, 0.0, 2024-02-26 13:10:09.199
99.0, 16.195636758115143, 14.31820698035881, 32.417452815920115, 66.55525961145759, 0.04800000227987766, 0.0800000037997961, 1.008000047877431, 0.0, 0.0, 0.0, 0.0, 0.0, 1.708981809199602E9, 0.0, 2024-02-26 13:10:09.199
100.0, 10.866279321257025, 31.63020387524739, 16.94922659918666, 26.61312808468938, 0.04800000227987766, 0.0800000037997961, 1.008000047877431, 0.0, 0.0, 0.0, 0.0, 0.0, 1.708981809211544E9, 0.0, 2024-02-26 13:10:09.211
100.0, 7.287195063661784, 31.353451278526336, 8.968280093744397, -19.78033086564392, 0.04800000227987766, 0.0800000037997961, 1.008000047877431, 0.0, 0.0, 0.0, 0.0, 0.0, 1.708981809211544E9, 0.0, 2024-02-26 13:10:09.211
0.0, 17.13435164699331, 19.73545206617564, 42.32070789858699, 20.07578296214342, 0.04800000227987766, 0.0800000037997961, 1.008000047877431, 0.0, 0.0, 0.0, 0.0, 0.0, 1.708981809214721E9, 0.0, 2024-02-26 13:10:09.214
1.0, 13.420630990993232, 18.265671383589506, 23.239738324657083, 8.265178902074695, 0.04800000227987766, 0.09600000455975533, 1.008000047877431, 0.0, 0.0, 0.0, 0.0, 0.0, 1.708981809226237E9, 0.0, 2024-02-26 13:10:09.226
1.0, 1.5801077312789857, 11.425394364632666, -0.1645555980503559, -14.851142724044621, 0.04800000227987766, 0.09600000455975533, 1.008000047877431, 0.0, 0.0, 0.0, 0.0, 0.0, 1.708981809226237E9, 0.0, 2024-02-26 13:10:09.226
2.0, 12.380938803311437, 27.39476717542857, 24.275690612383187, 9.888295482844114, 0.04800000227987766, 0.09600000455975533, 1.008000047877431, 0.0, 0.0, 0.0, 0.0, 0.0, 1.708981809242053E9, 0.0, 2024-02-26 13:10:09.242
2.0, 15.735629063565284, 21.27629084791988, 23.269657524302602, 19.058530174195766, 0.04800000227987766, 0.09600000455975533, 1.008000047877431, 0.0, 0.0, 0.0, 0.0, 0.0, 1.708981809242053E9, 0.0, 2024-02-26 13:10:09.242
3.0, 7.967856855597347, 7.277845313772559, 5.684647932648659, -11.29823776613921, 0.04800000227987766, 0.09600000455975533, 1.008000047877431, 0.0, 0.0, 0.0, 0.0, 0.0, 1.708981809245232E9, 0.0, 2024-02-26 13:10:09.245
3.0, 9.359099639113992, 13.082170045003295, 15.367248917929828, 2.662808768451214, 0.04800000227987766, 0.09600000455975533, 1.008000047877431, 0.0, 0.0, 0.0, 0.0, 0.0, 1.708981809245232E9, 0.0, 2024-02-26 13:10:09.245
4.0, 9.011288943234831, 19.35772217065096, 31.089788331650198, 20.91352055221796, 0.04800000227987766, 0.09600000455975533, 1.008000047877431, 0.0, 0.0, 0.0, 0.0, 0.0, 1.708981809256065E9, 0.0, 2024-02-26 13:10:09.256
4.0, 3.5622547077946365, 6.671981520950794, 9.518045387230814, -2.2775990730151534, 0.04800000227987766, 0.09600000455975533, 1.008000047877431, 0.0, 0.0, 0.0, 0.0, 0.0, 1.708981809256065E9, 0.0, 2024-02-26 13:10:09.256
5.0, 1.7446633293293417, 3.2873720610514283, 2.5094728702679276, -14.611789126880467, 0.04800000227987766, 0.09600000455975533, 1.008000047877431, 0.0, 0.0, 0.0, 0.0, 0.0, 1.708981809271592E9, 0.0, 2024-02-26 13:10:09.271
5.0, 9.08234704239294, 10.011712181381881, 25.906286993063986, 16.91930739954114, 0.04800000227987766, 0.09600000455975533, 1.008000047877431, 0.0, 0.0, 0.0, 0.0, 0.0, 1.708981809271592E9, 0.0, 2024-02-26 13:10:09.271
6.0, 2.7993151168338954, 4.057791451923549, 10.108949580229819, 8.160461703315377, 0.04800000227987766, 0.09600000455975533, 1.008000047877431, 0.0, 0.0, 0.0, 0.0, 0.0, 1.708981809274683E9, 0.0, 2024-02-26 13:10:09.274
6.0, -4.788941893260926, -5.916521729901433, -11.23839936684817, -20.442293157801032, 0.04800000227987766, 0.09600000455975533, 1.008000047877431, 0.0, 0.0, 0.0, 0.0, 0.0, 1.708981809274683E9, 0.0, 2024-02-26 13:10:09.274
7.0, 0.11032704869285226, 5.516352434642613, 11.25335896667093, 7.371342812664807, 0.04800000227987766, 0.09600000455975533, 1.008000047877431, 0.0, 0.0, 0.0, 0.0, 0.0, 1.708981809285915E9, 0.0, 2024-02-26 13:10:09.285
7.0, -1.243516735266894, 3.0854174634441733, 2.5580915696918964, 9.970573281869292, 0.04800000227987766, 0.09600000455975533, 1.008000047877431, 0.0, 0.0, 0.0, 0.0, 0.0, 1.708981809285915E9, 0.0, 2024-02-26 13:10:09.285
8.0, -5.794974981341511, -1.2416467852890491, -13.029811445623636, -13.882508635520935, 0.04800000227987766, 0.09600000455975533, 1.008000047877431, 0.0, 0.0, 0.0, 0.0, 0.0, 1.708981809301938E9, 0.0, 2024-02-26 13:10:09.301
8.0, -7.762162358034402, 2.490773370489478, -12.962493246421218, -6.559784522280097, 0.04800000227987766, 0.09600000455975533, 1.008000047877431, 0.0, 0.0, 0.0, 0.0, 0.0, 1.708981809301938E9, 0.0, 2024-02-26 13:10:09.301
9.0, -7.721023458521813, 4.263485949486494, -0.4300884949043393, 12.386548653244972, 0.04800000227987766, 0.09600000455975533, 1.008000047877431, 0.0, 0.0, 0.0, 0.0, 0.0, 1.708981809305607E9, 0.0, 2024-02-26 13:10:09.305
9.0, -16.7678414513357, -7.367602912709117, -11.24213926680386, -9.959353582002223, 0.04800000227987766, 0.09600000455975533, 1.008000047877431, 0.0, 0.0, 0.0, 0.0, 0.0, 1.708981809305607E9, 0.0, 2024-02-26 13:10:09.305
10.0, -19.55780681828037, 17.225979195907712, -25.41262019891292, -23.72218541894108, 0.04800000227987766, 0.09600000455975533, 1.0240000486373901, 0.0, 0.0, 0.0, 0.0, 0.0, 1.708981809316231E9, 0.0, 2024-02-26 13:10:09.316
10.0, -10.2828549281694, -1.4398614829406142, -4.342023848555982, 8.519492099061608, 0.04800000227987766, 0.09600000455975533, 1.0240000486373901, 0.0, 0.0, 0.0, 0.0, 0.0, 1.708981809316231E9, 0.0, 2024-02-26 13:10:09.316
11.0, -7.43305116193369, -0.09349749889224768, -7.980946505442262, -6.769218919798732, 0.04800000227987766, 0.09600000455975533, 1.0240000486373901, 0.0, 0.0, 0.0, 0.0, 0.0, 1.708981809331834E9, 0.0, 2024-02-26 13:10:09.331
11.0, -11.539461313281208, -13.31030394230038, -27.514443974010646, -29.31707575265318, 0.04800000227987766, 0.09600000455975533, 1.0240000486373901, 0.0, 0.0, 0.0, 0.0, 0.0, 1.708981809331834E9, 0.0, 2024-02-26 13:10:09.331
12.0, -9.665771435480565, -3.3920892598107457, -4.01291265245527, -0.5684647932648659, 0.03200000151991844, 0.09600000455975533, 1.0240000486373901, 0.0, 0.0, 0.0, 0.0, 0.0, 1.708981809334861E9, 0.0, 2024-02-26 13:10:09.334
12.0, -12.923224296886474, -3.661362056620419, -8.84860329516232, -1.0808310871943831, 0.03200000151991844, 0.09600000455975533, 1.0240000486373901, 0.0, 0.0, 0.0, 0.0, 0.0, 1.708981809334861E9, 0.0, 2024-02-26 13:10:09.334
13.0, -14.924070773180574, -14.787564424797893, -18.46762598119676, -28.651373560540378, 0.03200000151991844, 0.09600000455975533, 1.0240000486373901, 0.0, 0.0, 0.0, 0.0, 0.0, 1.708981809346079E9, 0.0, 2024-02-26 13:10:09.346
13.0, -9.676991135347635, -9.016898793168366, -9.203893790952861, -17.932820287533104, 0.03200000151991844, 0.09600000455975533, 1.0240000486373901, 0.0, 0.0, 0.0, 0.0, 0.0, 1.708981809346079E9, 0.0, 2024-02-26 13:10:09.346
14.0, -5.723916882183403, -0.17203539796173573, 4.293405149132013, 6.387749124318361, 0.03200000151991844, 0.09600000455975533, 1.0240000486373901, 0.0, 0.0, 0.0, 0.0, 0.0, 1.708981809361556E9, 0.0, 2024-02-26 13:10:09.361
14.0, -7.298414763528854, -0.14211619831621647, -3.496806458570063, -14.858622523956, 0.03200000151991844, 0.09600000455975533, 1.0240000486373901, 0.0, 0.0, 0.0, 0.0, 0.0, 1.708981809361556E9, 0.0, 2024-02-26 13:10:09.361
15.0, -7.765902257990092, -12.285571354441345, -12.412727952934802, -26.295236588455737, 0.03200000151991844, 0.09600000455975533, 1.0240000486373901, 0.0, 0.0, 0.0, 0.0, 0.0, 1.708981809377748E9, 0.0, 2024-02-26 13:10:09.377
15.0, 2.3991458215750754, -0.13463639840483665, 11.791904560290277, 8.504532499238849, 0.03200000151991844, 0.09600000455975533, 1.0240000486373901, 0.0, 0.0, 0.0, 0.0, 0.0, 1.708981809377748E9, 0.0, 2024-02-26 13:10:09.377
16.0, -0.8209080402739346, -5.561231234110892, 4.734713343903422, -3.5229857582598925, 0.03200000151991844, 0.09600000455975533, 1.0240000486373901, 0.0, 0.0, 0.0, 0.0, 0.0, 1.708981809380959E9, 0.0, 2024-02-26 13:10:09.380
16.0, -10.092120030429214, -9.761138884350657, -15.049357421696186, -25.939946092665195, 0.03200000151991844, 0.09600000455975533, 1.0240000486373901, 0.0, 0.0, 0.0, 0.0, 0.0, 1.708981809380959E9, 0.0, 2024-02-26 13:10:09.380
17.0, 1.4716506325639784, 3.2088341619819403, 14.955859922803938, 3.3098114607855678, 0.03200000151991844, 0.09600000455975533, 1.0240000486373901, 0.0, 0.0, 0.0, 0.0, 0.0, 1.708981809392424E9, 0.0, 2024-02-26 13:10:09.392
17.0, -2.4702039207331836, -0.9050557892769575, 9.308610989712179, 0.2730126967653632, 0.03200000151991844, 0.09600000455975533, 1.0240000486373901, 0.0, 0.0, 0.0, 0.0, 0.0, 1.708981809392424E9, 0.0, 2024-02-26 13:10:09.392
18.0, -7.070280866231769, -9.028118493035436, -13.29534434247762, -25.41636009886861, 0.03200000151991844, 0.09600000455975533, 1.0240000486373901, 0.0, 0.0, 0.0, 0.0, 0.0, 1.70898180939561E9, 0.0, 2024-02-26 13:10:09.395
18.0, -3.663232006598264, 0.2580530969426036, 0.12715659849345684, -5.778145431540906, 0.03200000151991844, 0.09600000455975533, 1.0240000486373901, 0.0, 0.0, 0.0, 0.0, 0.0, 1.70898180939561E9, 0.0, 2024-02-26 13:10:09.395
19.0, 1.4828703324310482, 1.567018081434071, 12.184594055637717, 11.466533264145255, 0.03200000151991844, 0.09600000455975533, 1.0240000486373901, 0.0, 0.0, 0.0, 0.0, 0.0, 1.708981809406243E9, 0.0, 2024-02-26 13:10:09.406
19.0, -0.3908195453695953, -1.7801923789083958, -3.9156752536073327, -10.03041168116033, 0.03200000151991844, 0.09600000455975533, 1.0240000486373901, 0.0, 0.0, 0.0, 0.0, 0.0, 1.708981809406243E9, 0.0, 2024-02-26 13:10:09.406
20.0, -4.557068096008152, -5.662208532914519, -6.365309724584222, -23.643647519871593, 0.03200000151991844, 0.09600000455975533, 1.0240000486373901, 0.0, 0.0, 0.0, 0.0, 0.0, 1.708981809421726E9, 0.0, 2024-02-26 13:10:09.421
20.0, 1.5352289318107069, 3.0741977635771036, 16.238645607605577, 6.757999219931662, 0.03200000151991844, 0.09600000455975533, 1.0240000486373901, 0.0, 0.0, 0.0, 0.0, 0.0, 1.708981809421726E9, 0.0, 2024-02-26 13:10:09.421
21.0, -6.423278173897415, -5.673428232781589, 8.134282403625548, -4.02413235232234, 0.03200000151991844, 0.0800000037997961, 1.0240000486373901, 0.0, 0.0, 0.0, 0.0, 0.0, 1.708981809424535E9, 0.0, 2024-02-26 13:10:09.424
21.0, -8.364286250900477, -10.217406678944826, -17.988918786868453, -31.497437426820397, 0.03200000151991844, 0.0800000037997961, 1.0240000486373901, 0.0, 0.0, 0.0, 0.0, 0.0, 1.708981809424535E9, 0.0, 2024-02-26 13:10:09.424
22.0, 5.8361138808541, 0.7218006914481521, 9.192674091085792, 1.20798768568784, 0.03200000151991844, 0.0800000037997961, 1.0240000486373901, 0.0, 0.0, 0.0, 0.0, 0.0, 1.708981809435912E9, 0.0, 2024-02-26 13:10:09.435
22.0, 5.357406686525792, -1.4772604824975133, 7.468580211512744, 6.791658319532871, 0.03200000151991844, 0.0800000037997961, 1.0240000486373901, 0.0, 0.0, 0.0, 0.0, 0.0, 1.708981809435912E9, 0.0, 2024-02-26 13:10:09.435
23.0, 3.139646012801677, 0.39642939530313015, -0.11219699867069721, -17.383054994046688, 0.03200000151991844, 0.0800000037997961, 1.0240000486373901, 0.0, 0.0, 0.0, 0.0, 0.0, 1.7089818094516E9, 0.0, 2024-02-26 13:10:09.451
23.0, 6.973043467383832, 2.9171219654381275, 12.85403614770621, -5.063824540004134, 0.03200000151991844, 0.0800000037997961, 1.0240000486373901, 0.0, 0.0, 0.0, 0.0, 0.0, 1.7089818094516E9, 0.0, 2024-02-26 13:10:09.451
24.0, 7.687364358920604, 4.4878799468278885, 24.9750519040972, 16.769711401313543, 0.03200000151991844, 0.0800000037997961, 1.0240000486373901, 0.0, 0.0, 0.0, 0.0, 0.0, 1.708981809454589E9, 0.0, 2024-02-26 13:10:09.454
24.0, 10.410011526662856, 1.0995305869728327, 10.127649080008268, -5.4939130349084735, 0.03200000151991844, 0.0800000037997961, 1.0240000486373901, 0.0, 0.0, 0.0, 0.0, 0.0, 1.708981809454589E9, 0.0, 2024-02-26 13:10:09.454
25.0, 5.181631388608366, -4.562677945941687, 1.6979145798832178, -13.70299343764782, 0.03200000151991844, 0.0800000037997961, 1.0240000486373901, 0.0, 0.0, 0.0, 0.0, 0.0, 1.708981809466233E9, 0.0, 2024-02-26 13:10:09.466
25.0, 12.65021160012111, 5.134882639162242, 26.358814887702465, 11.417914564721286, 0.03200000151991844, 0.0800000037997961, 1.0240000486373901, 0.0, 0.0, 0.0, 0.0, 0.0, 1.708981809466233E9, 0.0, 2024-02-26 13:10:09.466
26.0, 14.019014983903617, 5.456514035351574, 24.219592113047838, 7.154428615234792, 0.03200000151991844, 0.0800000037997961, 1.0240000486373901, 0.0, 0.0, 0.0, 0.0, 0.0, 1.708981809482072E9, 0.0, 2024-02-26 13:10:09.482
26.0, 8.611119647976011, -3.8483570544049144, 5.363016536459327, -13.777791436761618, 0.03200000151991844, 0.0800000037997961, 1.0240000486373901, 0.0, 0.0, 0.0, 0.0, 0.0, 1.708981809482072E9, 0.0, 2024-02-26 13:10:09.482
27.0, 12.627772200386971, 6.922554817982018, 28.22502496559173, 9.731219684705138, 0.03200000151991844, 0.0800000037997961, 1.0240000486373901, 0.0, 0.0, 0.0, 0.0, 0.0, 1.708981809485394E9, 0.0, 2024-02-26 13:10:09.485
27.0, 16.506048454437405, 6.881415918469429, 28.94682565703988, 16.96044629905373, 0.03200000151991844, 0.0800000037997961, 1.0240000486373901, 0.0, 0.0, 0.0, 0.0, 0.0, 1.708981809485394E9, 0.0, 2024-02-26 13:10:09.485
28.0, 11.561900713015348, 1.368803383782506, 15.71505961380899, -7.2254867143929005, 0.03200000151991844, 0.0800000037997961, 1.0240000486373901, 0.0, 0.0, 0.0, 0.0, 0.0, 1.708981809496241E9, 0.0, 2024-02-26 13:10:09.496
28.0, 13.663724488113075, 3.7623393554240465, 15.602862615138292, 0.24683339707553387, 0.03200000151991844, 0.0800000037997961, 1.0240000486373901, 0.0, 0.0, 0.0, 0.0, 0.0, 1.708981809496241E9, 0.0, 2024-02-26 13:10:09.496
29.0, 17.751435139682144, 10.408141576685011, 33.52820310276002, 22.024270839057863, 0.03200000151991844, 0.0800000037997961, 1.0240000486373901, 0.0, 0.0, 0.0, 0.0, 0.0, 1.708981809511563E9, 0.0, 2024-02-26 13:10:09.511
29.0, 14.890411673579365, 9.604063086211681, 18.239492083899677, 0.160815698094666, 0.03200000151991844, 0.0800000037997961, 1.0240000486373901, 0.0, 0.0, 0.0, 0.0, 0.0, 1.708981809511563E9, 0.0, 2024-02-26 13:10:09.511
30.0, 7.560207760427147, 3.695021156221628, 6.013759128749371, -11.500192363746464, 0.03200000151991844, 0.0800000037997961, 1.0240000486373901, 0.0, 0.0, 0.0, 0.0, 0.0, 1.708981809514536E9, 0.0, 2024-02-26 13:10:09.514
30.0, 16.150757958646864, 13.602016138844192, 31.650773325003684, 22.47305883374065, 0.03200000151991844, 0.0800000037997961, 1.0240000486373901, 0.0, 0.0, 0.0, 0.0, 0.0, 1.708981809514536E9, 0.0, 2024-02-26 13:10:09.514
31.0, 12.190203905571252, 9.226333190687, 23.68478641938418, 10.254805678501725, 0.03200000151991844, 0.06400000303983688, 1.0240000486373901, 0.0, 0.0, 0.0, 0.0, 0.0, 1.708981809525931E9, 0.0, 2024-02-26 13:10:09.525
31.0, 8.730796446558088, -2.1878414740785956, 0.08227779902517796, -12.221993055194616, 0.03200000151991844, 0.06400000303983688, 1.0240000486373901, 0.0, 0.0, 0.0, 0.0, 0.0, 1.708981809525931E9, 0.0, 2024-02-26 13:10:09.525
32.0, 22.164517087396234, 7.66305500920862, 35.88434007484466, 20.442293157801032, 0.03200000151991844, 0.06400000303983688, 1.0240000486373901, 0.0, 0.0, 0.0, 0.0, 0.0, 1.708981809541971E9, 0.0, 2024-02-26 13:10:09.541
32.0, 15.93010386126116, 11.133682168088853, 32.21923811826855, 22.282323936000466, 0.03200000151991844, 0.06400000303983688, 1.0240000486373901, 0.0, 0.0, 0.0, 0.0, 0.0, 1.708981809541971E9, 0.0, 2024-02-26 13:10:09.541
33.0, 13.49916889006272, 3.332250860519707, 11.085063468664885, -4.2447864497080445, 0.03200000151991844, 0.06400000303983688, 1.0240000486373901, 0.0, 0.0, 0.0, 0.0, 0.0, 1.708981809544974E9, 0.0, 2024-02-26 13:10:09.544
33.0, 14.045194283593446, 10.007972281426191, 20.790103853680193, 7.453620611689985, 0.03200000151991844, 0.06400000303983688, 1.0240000486373901, 0.0, 0.0, 0.0, 0.0, 0.0, 1.708981809544974E9, 0.0, 2024-02-26 13:10:09.544
34.0, 19.198776422534138, 11.343116565607488, 32.18183911871165, 26.15686029009521, 0.03200000151991844, 0.06400000303983688, 1.0240000486373901, 0.0, 0.0, 0.0, 0.0, 0.0, 1.708981809556254E9, 0.0, 2024-02-26 13:10:09.556
34.0, 15.144724870566279, 7.416221612133086, 16.13392840884626, 5.823024231009185, 0.03200000151991844, 0.06400000303983688, 1.0240000486373901, 0.0, 0.0, 0.0, 0.0, 0.0, 1.708981809556254E9, 0.0, 2024-02-26 13:10:09.556
35.0, 15.11106577096507, 6.713120420463383, 16.829549800604582, -4.222347049973905, 0.03200000151991844, 0.06400000303983688, 1.0240000486373901, 0.0, 0.0, 0.0, 0.0, 0.0, 1.70898180957184E9, 0.0, 2024-02-26 13:10:09.571
35.0, 17.310126944910735, 9.110396292060614, 37.91510575078428, 30.835475134663284, 0.03200000151991844, 0.06400000303983688, 1.0240000486373901, 0.0, 0.0, 0.0, 0.0, 0.0, 1.70898180957184E9, 0.0, 2024-02-26 13:10:09.571
36.0, 12.998022296000272, 6.324170825071633, 29.04406305588782, 17.74582528974861, 0.03200000151991844, 0.06400000303983688, 1.0240000486373901, 0.0, 0.0, 0.0, 0.0, 0.0, 1.708981809575639E9, 0.0, 2024-02-26 13:10:09.575
36.0, 10.593266624491662, 1.0957906870171428, 4.4878799468278885, -7.8276106072589755, 0.03200000151991844, 0.06400000303983688, 1.0240000486373901, 0.0, 0.0, 0.0, 0.0, 0.0, 1.708981809575639E9, 0.0, 2024-02-26 13:10:09.575
37.0, 17.54200074216351, 10.243585978634655, 35.00920348521322, 23.37811462301761, 0.03200000151991844, 0.06400000303983688, 1.0240000486373901, 0.0, 0.0, 0.0, 0.0, 0.0, 1.708981809586081E9, 0.0, 2024-02-26 13:10:09.586
37.0, 13.641285088378936, 11.028964969329536, 24.780577106401324, 20.96961905155331, 0.03200000151991844, 0.06400000303983688, 1.0240000486373901, 0.0, 0.0, 0.0, 0.0, 0.0, 1.708981809586081E9, 0.0, 2024-02-26 13:10:09.586
38.0, 13.611365888733417, 3.7997383549809456, 15.056837221607566, 0.3665101956576109, 0.03200000151991844, 0.06400000303983688, 1.0240000486373901, 0.0, 0.0, 0.0, 0.0, 0.0, 1.70898180960202E9, 0.0, 2024-02-26 13:10:09.602
38.0, 17.265248145442456, 3.3509503602981567, 20.94343975186348, 11.376775665208697, 0.03200000151991844, 0.06400000303983688, 1.0240000486373901, 0.0, 0.0, 0.0, 0.0, 0.0, 1.70898180960202E9, 0.0, 2024-02-26 13:10:09.602
39.0, 21.397837596479803, 10.778391672298312, 36.381746768951416, 30.786856435239315, 0.03200000151991844, 0.06400000303983688, 1.0240000486373901, 0.0, 0.0, 0.0, 0.0, 0.0, 1.708981809605266E9, 0.0, 2024-02-26 13:10:09.605
39.0, 13.85445938585326, 11.743285860866308, 22.06914963852614, 10.763432072475553, 0.03200000151991844, 0.06400000303983688, 1.0240000486373901, 0.0, 0.0, 0.0, 0.0, 0.0, 1.708981809605266E9, 0.0, 2024-02-26 13:10:09.605
40.0, 11.311327415984124, 5.505132734775543, 10.827010371722281, -3.6464024567976594, 0.03200000151991844, 0.06400000303983688, 1.0240000486373901, 0.0, 0.0, 0.0, 0.0, 0.0, 1.708981809616294E9, 0.0, 2024-02-26 13:10:09.616
40.0, 16.195636758115143, 13.931127334944904, 29.223578253760934, 27.121754478663206, 0.03200000151991844, 0.06400000303983688, 1.0240000486373901, 0.0, 0.0, 0.0, 0.0, 0.0, 1.708981809616294E9, 0.0, 2024-02-26 13:10:09.616
41.0, 14.149911482352763, 7.678014609031379, 28.647633660584688, 15.26253171917051, 0.03200000151991844, 0.06400000303983688, 1.0240000486373901, 0.0, 0.0, 0.0, 0.0, 0.0, 1.708981809631737E9, 0.0, 2024-02-26 13:10:09.631
41.0, 7.541508260648698, -5.961400529369712, 8.283878401853144, -15.29245091881603, 0.03200000151991844, 0.06400000303983688, 1.0240000486373901, 0.0, 0.0, 0.0, 0.0, 0.0, 1.708981809631737E9, 0.0, 2024-02-26 13:10:09.631
42.0, 13.327133492100984, -0.49366679415106773, 27.39850707538426, 18.602262379601598, 0.01600000075995922, 0.06400000303983688, 1.0240000486373901, 0.0, 0.0, 0.0, 0.0, 0.0, 1.708981809634716E9, 0.0, 2024-02-26 13:10:09.634
42.0, 13.330873392056674, 1.7091342797502875, 25.928726392798126, 19.499838368967175, 0.01600000075995922, 0.06400000303983688, 1.0240000486373901, 0.0, 0.0, 0.0, 0.0, 0.0, 1.708981809634716E9, 0.0, 2024-02-26 13:10:09.634
43.0, 4.6468256949447095, -9.768618684262037, 5.176021538674831, -4.218607150018215, 0.01600000075995922, 0.06400000303983688, 1.0240000486373901, 0.0, 0.0, 0.0, 0.0, 0.0, 1.708981809645927E9, 0.0, 2024-02-26 13:10:09.645
43.0, 7.160038465168327, 1.2528664851561189, 10.632535574026406, 5.344317036680877, 0.01600000075995922, 0.06400000303983688, 1.0240000486373901, 0.0, 0.0, 0.0, 0.0, 0.0, 1.708981809645927E9, 0.0, 2024-02-26 13:10:09.645
44.0, 11.000915719661862, 5.392935736104846, 28.251204265281558, 25.74547129496932, 0.01600000075995922, 0.06400000303983688, 1.0240000486373901, 0.0, 0.0, 0.0, 0.0, 0.0, 1.708981809661626E9, 0.0, 2024-02-26 13:10:09.661
44.0, 7.85565985692665, -5.082524039782584, 14.91846092324704, 7.154428615234792, 0.01600000075995922, 0.06400000303983688, 1.0240000486373901, 0.0, 0.0, 0.0, 0.0, 0.0, 1.708981809661626E9, 0.0, 2024-02-26 13:10:09.661
45.0, 7.03288186667487, 3.21631396189332, 2.617929968982935, -8.691527497023344, 0.01600000075995922, 0.06400000303983688, 1.0240000486373901, 0.0, 0.0, 0.0, 0.0, 0.0, 1.708981809664562E9, 0.0, 2024-02-26 13:10:09.664
45.0, 11.524501713458449, 11.085063468664885, 31.624594025313854, 27.230211577378213, 0.01600000075995922, 0.06400000303983688, 1.0240000486373901, 0.0, 0.0, 0.0, 0.0, 0.0, 1.708981809664562E9, 0.0, 2024-02-26 13:10:09.664
46.0, 7.429311261978, -0.643262792378664, 19.413820669986308, 10.011712181381881, 0.01600000075995922, 0.06400000303983688, 1.0240000486373901, 0.0, 0.0, 0.0, 0.0, 0.0, 1.708981809676222E9, 0.0, 2024-02-26 13:10:09.676
46.0, -2.4776837206445634, -20.06456326227635, -8.650388597510755, -15.382208517752588, 0.01600000075995922, 0.06400000303983688, 1.0240000486373901, 0.0, 0.0, 0.0, 0.0, 0.0, 1.708981809676222E9, 0.0, 2024-02-26 13:10:09.676
47.0, 11.517021913547069, -25.69311269558966, 20.719045754522085, 16.608895703218877, 0.01600000075995922, 0.06400000303983688, 1.0240000486373901, 0.0, 0.0, 0.0, 0.0, 0.0, 1.708981809692015E9, 0.0, 2024-02-26 13:10:09.692
47.0, 11.161731417756528, -28.6064947610721, 19.013651374727488, 22.20378603693098, 0.01600000075995922, 0.06400000303983688, 1.0240000486373901, 0.0, 0.0, 0.0, 0.0, 0.0, 1.708981809692015E9, 0.0, 2024-02-26 13:10:09.692
48.0, 4.014782602433115, -32.413712915964425, 9.319830689579248, -6.933774517849088, 0.01600000075995922, 0.06400000303983688, 1.0240000486373901, 0.0, 0.0, 0.0, 0.0, 0.0, 1.708981809695302E9, 0.0, 2024-02-26 13:10:09.695
48.0, 9.003809143323451, -27.585502073168755, 15.356029218062758, 0.8003385905176401, 0.01600000075995922, 0.06400000303983688, 1.0240000486373901, 0.0, 0.0, 0.0, 0.0, 0.0, 1.708981809695302E9, 0.0, 2024-02-26 13:10:09.695
49.0, 7.762162358034402, 29.642447048798203, 27.77249707095325, 20.019684462808073, 0.01600000075995922, 0.06400000303983688, 1.0240000486373901, 0.0, 0.0, 0.0, 0.0, 0.0, 1.708981809706382E9, 0.0, 2024-02-26 13:10:09.706
49.0, 8.416644850280136, 37.12598686013371, 11.560030763037503, 6.470026923343539, 0.01600000075995922, 0.06400000303983688, 1.0240000486373901, 0.0, 0.0, 0.0, 0.0, 0.0, 1.708981809706382E9, 0.0, 2024-02-26 13:10:09.706
50.0, 3.42387840943411, 18.295590583235025, 1.5894574811682105, -5.972620229236782, 0.01600000075995922, 0.06400000303983688, 1.0240000486373901, 0.0, 0.0, 0.0, 0.0, 0.0, 1.708981809721788E9, 0.0, 2024-02-26 13:10:09.721
50.0, 13.031681395601481, 15.393428217619658, 25.102208502590656, 25.921246592886746, 0.01600000075995922, 0.06400000303983688, 1.0240000486373901, 0.0, 0.0, 0.0, 0.0, 0.0, 1.708981809721788E9, 0.0, 2024-02-26 13:10:09.721
51.0, 7.960377055685967, -10.808310871943831, 15.370988817885518, 31.75175062380731, 0.01600000075995922, 0.06400000303983688, 1.0240000486373901, 0.0, 0.0, 0.0, 0.0, 0.0, 1.70898180972448E9, 0.0, 2024-02-26 13:10:09.724
51.0, -0.443178144749254, -23.72592531889677, -6.746779520064592, 15.337329718284309, 0.01600000075995922, 0.06400000303983688, 1.0240000486373901, 0.0, 0.0, 0.0, 0.0, 0.0, 1.70898180972448E9, 0.0, 2024-02-26 13:10:09.724
52.0, 11.718976511154324, -18.250711783766747, 16.391981505788863, 28.344701764173806, 0.03200000151991844, 0.06400000303983688, 1.0240000486373901, 0.0, 0.0, 0.0, 0.0, 0.0, 1.708981809736304E9, 0.0, 2024-02-26 13:10:09.736
52.0, 6.670111570972949, -20.47595225740224, 15.920754111371934, 18.030057686381042, 0.03200000151991844, 0.06400000303983688, 1.0240000486373901, 0.0, 0.0, 0.0, 0.0, 0.0, 1.708981809736304E9, 0.0, 2024-02-26 13:10:09.736
53.0, 11.258968816604465, -4.502839546650648, 9.892035382799804, -14.948380122892559, 0.03200000151991844, 0.06400000303983688, 1.0240000486373901, 0.0, 0.0, 0.0, 0.0, 0.0, 1.708981809751726E9, 0.0, 2024-02-26 13:10:09.751
53.0, 13.330873392056674, 6.776698719710112, 15.572943415492773, -5.033905340358615, 0.03200000151991844, 0.06400000303983688, 1.0240000486373901, 0.0, 0.0, 0.0, 0.0, 0.0, 1.708981809751726E9, 0.0, 2024-02-26 13:10:09.751
54.0, 14.022754883859307, 7.674274709075689, 30.756937235593796, 22.20004613697529, 0.03200000151991844, 0.06400000303983688, 1.0240000486373901, 0.0, 0.0, 0.0, 0.0, 0.0, 1.708981809754517E9, 0.0, 2024-02-26 13:10:09.754
54.0, 12.351019603665918, 4.308364748954773, 18.437706781551242, 6.585963821969926, 0.03200000151991844, 0.06400000303983688, 1.0240000486373901, 0.0, 0.0, 0.0, 0.0, 0.0, 1.708981809754517E9, 0.0, 2024-02-26 13:10:09.754
55.0, 7.743462858255953, -5.957660629414022, 6.83279721904546, -7.487279711291194, 0.03200000151991844, 0.06400000303983688, 1.0240000486373901, 0.0, 0.0, 0.0, 0.0, 0.0, 1.70898180976636E9, 0.0, 2024-02-26 13:10:09.766
55.0, 15.728149263653904, 1.7914120787754655, 30.857914534397423, 26.340115387924016, 0.03200000151991844, 0.06400000303983688, 1.0240000486373901, 0.0, 0.0, 0.0, 0.0, 0.0, 1.70898180976636E9, 0.0, 2024-02-26 13:10:09.766
56.0, 15.937583661172539, 2.531912270002067, 25.962385492399335, 22.10654863808304, 0.03200000151991844, 0.06400000303983688, 1.0240000486373901, 0.0, 0.0, 0.0, 0.0, 0.0, 1.708981809781764E9, 0.0, 2024-02-26 13:10:09.781
56.0, 6.262462475802749, -6.125956127420068, 6.279292025603354, -8.87852249480784, 0.03200000151991844, 0.06400000303983688, 1.0240000486373901, 0.0, 0.0, 0.0, 0.0, 0.0, 1.708981809781764E9, 0.0, 2024-02-26 13:10:09.781
57.0, 17.631758341100067, 0.04861869942396879, 34.021869896911085, 21.066856450401247, 0.03200000151991844, 0.06400000303983688, 1.0240000486373901, 0.0, 0.0, 0.0, 0.0, 0.0, 1.708981809784681E9, 0.0, 2024-02-26 13:10:09.784
57.0, 13.424370890948921, 4.861869942396879, 29.79578294698149, 22.94802612811327, 0.03200000151991844, 0.06400000303983688, 1.0240000486373901, 0.0, 0.0, 0.0, 0.0, 0.0, 1.708981809784681E9, 0.0, 2024-02-26 13:10:09.784
58.0, 9.620892636012286, -0.643262792378664, 9.877075782977045, 2.621669868938625, 0.03200000151991844, 0.06400000303983688, 1.0240000486373901, 0.0, 0.0, 0.0, 0.0, 0.0, 1.708981809796075E9, 0.0, 2024-02-26 13:10:09.796
58.0, 16.28913425700739, 3.332250860519707, 15.838476312346756, 6.597183521836996, 0.03200000151991844, 0.06400000303983688, 1.0240000486373901, 0.0, 0.0, 0.0, 0.0, 0.0, 1.708981809796075E9, 0.0, 2024-02-26 13:10:09.796
59.0, 19.09031932381913, 6.746779520064592, 33.950811797752976, 24.58610230870545, 0.03200000151991844, 0.06400000303983688, 1.0240000486373901, 0.0, 0.0, 0.0, 0.0, 0.0, 1.708981809811534E9, 0.0, 2024-02-26 13:10:09.811
59.0, 12.223863005172461, -1.2341669853776693, 15.363509017974138, 12.678260849788785, 0.03200000151991844, 0.06400000303983688, 1.0240000486373901, 0.0, 0.0, 0.0, 0.0, 0.0, 1.708981809811534E9, 0.0, 2024-02-26 13:10:09.811
60.0, 5.106833389494568, -9.428287788294256, 6.42514812387526, -11.391735265031457, 0.03200000151991844, 0.06400000303983688, 1.0400000493973494, 0.0, 0.0, 0.0, 0.0, 0.0, 1.708981809827412E9, 0.0, 2024-02-26 13:10:09.827
60.0, 9.617152736056596, 6.85149671882391, 24.50756440963596, 24.320569411851466, 0.03200000151991844, 0.06400000303983688, 1.0400000493973494, 0.0, 0.0, 0.0, 0.0, 0.0, 1.708981809827412E9, 0.0, 2024-02-26 13:10:09.827
61.0, 5.907171980012208, 2.6403693687170744, 14.372435529716313, 17.824363188818097, 0.03200000151991844, 0.04800000227987766, 1.0400000493973494, 0.0, 0.0, 0.0, 0.0, 0.0, 1.708981809830644E9, 0.0, 2024-02-26 13:10:09.830
61.0, -2.1223932248540223, -3.3621700601652265, -9.536744887009263, -14.07324353326112, 0.03200000151991844, 0.04800000227987766, 1.0400000493973494, 0.0, 0.0, 0.0, 0.0, 0.0, 1.708981809830644E9, 0.0, 2024-02-26 13:10:09.830
62.0, 12.859645997639745, 4.41682184766978, 17.562570191919804, 13.968526334501803, 0.03200000151991844, 0.04800000227987766, 1.0400000493973494, 0.0, 0.0, 0.0, 0.0, 0.0, 1.708981809841995E9, 0.0, 2024-02-26 13:10:09.841
62.0, 8.532581748906523, 7.214267014525831, 20.640507855452597, 17.461592893116176, 0.03200000151991844, 0.04800000227987766, 1.0400000493973494, 0.0, 0.0, 0.0, 0.0, 0.0, 1.708981809841995E9, 0.0, 2024-02-26 13:10:09.841
63.0, 6.303601375315338, -2.730126967653632, -3.3172912606969476, -9.001939193345606, 0.03200000151991844, 0.04800000227987766, 1.0400000493973494, 0.0, 0.0, 0.0, 0.0, 0.0, 1.70898180984521E9, 0.0, 2024-02-26 13:10:09.845
63.0, 5.626679483335465, 4.177468250505626, 17.498991892673075, 4.360723348334432, 0.03200000151991844, 0.04800000227987766, 1.0400000493973494, 0.0, 0.0, 0.0, 0.0, 0.0, 1.70898180984521E9, 0.0, 2024-02-26 13:10:09.845
64.0, 7.391912262421101, 4.652435544878244, 28.498037662357092, 22.372081534937024, 0.03200000151991844, 0.04800000227987766, 1.0400000493973494, 0.0, 0.0, 0.0, 0.0, 0.0, 1.708981809856068E9, 0.0, 2024-02-26 13:10:09.856
64.0, 10.862539421301335, -0.17577529791742563, 8.42225470021367, 4.267225849442184, 0.03200000151991844, 0.04800000227987766, 1.0400000493973494, 0.0, 0.0, 0.0, 0.0, 0.0, 1.708981809856068E9, 0.0, 2024-02-26 13:10:09.856
65.0, 3.255582911428064, 2.857283566147089, 3.6127433571964502, -12.734359349124134, 0.03200000151991844, 0.04800000227987766, 1.0400000493973494, 0.0, 0.0, 0.0, 0.0, 0.0, 1.708981809871974E9, 0.0, 2024-02-26 13:10:09.871
65.0, 11.748895710799843, 10.269765278324485, 22.342162335291505, 21.107995349913836, 0.03200000151991844, 0.04800000227987766, 1.0400000493973494, 0.0, 0.0, 0.0, 0.0, 0.0, 1.708981809871974E9, 0.0, 2024-02-26 13:10:09.871
66.0, 9.42267793836072, 7.865009606815875, 17.865502088330686, 14.47715272847563, 0.03200000151991844, 0.04800000227987766, 1.0400000493973494, 0.0, 0.0, 0.0, 0.0, 0.0, 1.708981809875954E9, 0.0, 2024-02-26 13:10:09.875
66.0, 2.21963062370196, -2.0831242753192782, -4.5701577458530664, -13.736652537249029, 0.03200000151991844, 0.04800000227987766, 1.0400000493973494, 0.0, 0.0, 0.0, 0.0, 0.0, 1.708981809875954E9, 0.0, 2024-02-26 13:10:09.875
67.0, 8.166071553248912, 6.567264322191477, 18.987472075037658, 16.0441708099097, 0.03200000151991844, 0.04800000227987766, 1.0400000493973494, 0.0, 0.0, 0.0, 0.0, 0.0, 1.708981809886228E9, 0.0, 2024-02-26 13:10:09.886
67.0, 5.462123885285109, 11.343116565607488, 13.018591745756567, 12.581023450940847, 0.03200000151991844, 0.04800000227987766, 1.0400000493973494, 0.0, 0.0, 0.0, 0.0, 0.0, 1.708981809886228E9, 0.0, 2024-02-26 13:10:09.886
68.0, 5.43220468563959, 7.098330115899444, -1.323924584314227, -4.84317044261843, 0.03200000151991844, 0.04800000227987766, 1.0400000493973494, 0.0, 0.0, 0.0, 0.0, 0.0, 1.708981809902073E9, 0.0, 2024-02-26 13:10:09.902
68.0, 6.385879174340516, 8.541931498795748, 9.23007309064269, 2.2289803735911846, 0.03200000151991844, 0.04800000227987766, 1.0400000493973494, 0.0, 0.0, 0.0, 0.0, 0.0, 1.708981809902073E9, 0.0, 2024-02-26 13:10:09.902
69.0, 7.814520957414061, 12.696960349567235, 22.99290492758155, 22.405740634538233, 0.03200000151991844, 0.04800000227987766, 1.0400000493973494, 0.0, 0.0, 0.0, 0.0, 0.0, 1.708981809905375E9, 0.0, 2024-02-26 13:10:09.905
69.0, 2.904032315593213, 5.819284331053495, 8.710226996801794, 2.01580607611686, 0.03200000151991844, 0.04800000227987766, 1.0400000493973494, 0.0, 0.0, 0.0, 0.0, 0.0, 1.708981809905375E9, 0.0, 2024-02-26 13:10:09.905
70.0, -0.05422854935750365, -4.757152743637562, -3.2350134616717696, -10.954166970215738, 0.03200000151991844, 0.04800000227987766, 1.0240000486373901, 0.0, 0.0, 0.0, 0.0, 0.0, 1.708981809916145E9, 0.0, 2024-02-26 13:10:09.916
70.0, 6.591573671903461, 9.065517492592335, 14.768864925019443, 23.501531321555376, 0.03200000151991844, 0.04800000227987766, 1.0240000486373901, 0.0, 0.0, 0.0, 0.0, 0.0, 1.708981809916145E9, 0.0, 2024-02-26 13:10:09.916
71.0, 6.116606377530843, 5.5350519344210625, 17.67102729063481, 10.202447079122066, 0.03200000151991844, 0.06400000303983688, 1.0240000486373901, 0.0, 0.0, 0.0, 0.0, 0.0, 1.708981809931676E9, 0.0, 2024-02-26 13:10:09.931
71.0, -2.294428622815758, 2.1953212739899755, -5.755706031806767, -13.590796438977122, 0.03200000151991844, 0.06400000303983688, 1.0240000486373901, 0.0, 0.0, 0.0, 0.0, 0.0, 1.708981809931676E9, 0.0, 2024-02-26 13:10:09.931
72.0, 3.7716891053132713, 4.914228541776538, 14.88106192369014, 5.725786832161248, 0.03200000151991844, 0.06400000303983688, 1.0240000486373901, 0.0, 0.0, 0.0, 0.0, 0.0, 1.708981809934683E9, 0.0, 2024-02-26 13:10:09.934
72.0, -1.568888031411916, 2.4010157715529203, 15.206433219835162, 14.07698343321681, 0.03200000151991844, 0.06400000303983688, 1.0240000486373901, 0.0, 0.0, 0.0, 0.0, 0.0, 1.708981809934683E9, 0.0, 2024-02-26 13:10:09.934
73.0, 1.890519427601248, -1.8662100778892636, -2.6665486684069037, -8.526971898972988, 0.03200000151991844, 0.06400000303983688, 1.0240000486373901, 0.0, 0.0, 0.0, 0.0, 0.0, 1.708981809945935E9, 0.0, 2024-02-26 13:10:09.945
73.0, 0.764809540938586, 1.6605155803263187, 2.457114270888269, -6.754259319975972, 0.03200000151991844, 0.06400000303983688, 1.0240000486373901, 0.0, 0.0, 0.0, 0.0, 0.0, 1.708981809945935E9, 0.0, 2024-02-26 13:10:09.945
74.0, 4.153158900793642, 49.76684871036559, 17.872981888242066, 16.653774502687156, 0.03200000151991844, 0.06400000303983688, 1.0240000486373901, 0.0, 0.0, 0.0, 0.0, 0.0, 1.708981809962526E9, 0.0, 2024-02-26 13:10:09.962
74.0, 4.8487802925519645, 67.54633309971541, 1.1892881859093904, -2.262639473192394, 0.03200000151991844, 0.06400000303983688, 1.0240000486373901, 0.0, 0.0, 0.0, 0.0, 0.0, 1.708981809962526E9, 0.0, 2024-02-26 13:10:09.962
75.0, -1.7558830291964114, 42.21973059978336, -5.2096806382760406, -22.13272793777287, 0.03200000151991844, 0.06400000303983688, 1.0240000486373901, 0.0, 0.0, 0.0, 0.0, 0.0, 1.708981809965372E9, 0.0, 2024-02-26 13:10:09.965
75.0, 4.927318191621453, 39.246510135009885, 19.570896468125284, 16.328403206542134, 0.03200000151991844, 0.06400000303983688, 1.0240000486373901, 0.0, 0.0, 0.0, 0.0, 0.0, 1.708981809965372E9, 0.0, 2024-02-26 13:10:09.965
76.0, -0.3534205458126962, 27.865994569845498, 8.586810298264027, 3.982993452809751, 0.03200000151991844, 0.06400000303983688, 1.0240000486373901, 0.0, 0.0, 0.0, 0.0, 0.0, 1.708981809976268E9, 0.0, 2024-02-26 13:10:09.976
76.0, -9.018768743146211, -24.97131200414151, -13.175667543895543, 18.85657557658851, 0.03200000151991844, 0.06400000303983688, 1.0240000486373901, 0.0, 0.0, 0.0, 0.0, 0.0, 1.708981809976268E9, 0.0, 2024-02-26 13:10:09.976
77.0, 2.896552515681833, 13.138268544338644, 6.316691025160253, 28.61023466102779, 0.03200000151991844, 0.06400000303983688, 1.0240000486373901, 0.0, 0.0, 0.0, 0.0, 0.0, 1.708981809991985E9, 0.0, 2024-02-26 13:10:09.991
77.0, -0.32350134616717696, 15.32237011846155, 4.917968441732228, 26.003524391911924, 0.03200000151991844, 0.06400000303983688, 1.0240000486373901, 0.0, 0.0, 0.0, 0.0, 0.0, 1.708981809991985E9, 0.0, 2024-02-26 13:10:09.991
78.0, -5.989449779037386, 8.190380902960896, -8.530711798928678, -2.700207768008113, 0.03200000151991844, 0.06400000303983688, 1.0240000486373901, 0.0, 0.0, 0.0, 0.0, 0.0, 1.708981809994921E9, 0.0, 2024-02-26 13:10:09.994
78.0, -5.297568287234753, 17.009064998477697, -4.2859253492206335, 0.5759445931762457, 0.03200000151991844, 0.06400000303983688, 1.0240000486373901, 0.0, 0.0, 0.0, 0.0, 0.0, 1.708981809994921E9, 0.0, 2024-02-26 13:10:09.994
79.0, 0.6114736427552998, 22.4917583335191, 9.798537883907557, 20.59188915602863, 0.03200000151991844, 0.06400000303983688, 1.0240000486373901, 0.0, 0.0, 0.0, 0.0, 0.0, 1.708981810006199E9, 0.0, 2024-02-26 13:10:10.006
79.0, -2.1859715241007507, 14.963339722715318, -8.635428997687995, 4.944147741422057, 0.03200000151991844, 0.06400000303983688, 1.0240000486373901, 0.0, 0.0, 0.0, 0.0, 0.0, 1.708981810006199E9, 0.0, 2024-02-26 13:10:10.006
80.0, -3.6445325068198144, 13.803970736451447, -12.771758348681033, -13.512258539907634, 0.03200000151991844, 0.06400000303983688, 1.0240000486373901, 0.0, 0.0, 0.0, 0.0, 0.0, 1.708981810021722E9, 0.0, 2024-02-26 13:10:10.021
80.0, 1.8419007281772792, 19.230565572157502, 10.651235073804855, 24.350488611496985, 0.03200000151991844, 0.06400000303983688, 1.0240000486373901, 0.0, 0.0, 0.0, 0.0, 0.0, 1.708981810021722E9, 0.0, 2024-02-26 13:10:10.021
81.0, 4.710403994191438, 19.75789146590978, 4.01665255241096, 7.042231616564095, 0.03200000151991844, 0.06400000303983688, 1.0240000486373901, 0.0, 0.0, 0.0, 0.0, 0.0, 1.708981810024569E9, 0.0, 2024-02-26 13:10:10.024
81.0, -4.859999992419034, 10.681154273450375, -13.242985743097961, -15.614082315005362, 0.03200000151991844, 0.06400000303983688, 1.0240000486373901, 0.0, 0.0, 0.0, 0.0, 0.0, 1.708981810024569E9, 0.0, 2024-02-26 13:10:10.024
82.0, 3.5697345077060163, 14.540731027722359, 10.950427070260048, 14.290157730691135, 0.01600000075995922, 0.06400000303983688, 1.0240000486373901, 0.0, 0.0, 0.0, 0.0, 0.0, 1.708981810036254E9, 0.0, 2024-02-26 13:10:10.036
82.0, 0.19634474767372012, 18.377868382260203, 9.28991148993373, 20.603108855895698, 0.01600000075995922, 0.06400000303983688, 1.0240000486373901, 0.0, 0.0, 0.0, 0.0, 0.0, 1.708981810036254E9, 0.0, 2024-02-26 13:10:10.036
83.0, 1.972797226626426, 14.06950363330543, -1.3800230836495757, -5.983839929103851, 0.01600000075995922, 0.06400000303983688, 1.0240000486373901, 0.0, 0.0, 0.0, 0.0, 0.0, 1.708981810051913E9, 0.0, 2024-02-26 13:10:10.051
83.0, 7.571427460294217, 17.33817619457841, 4.876829542219639, 3.6464024567976594, 0.01600000075995922, 0.06400000303983688, 1.0240000486373901, 0.0, 0.0, 0.0, 0.0, 0.0, 1.708981810051913E9, 0.0, 2024-02-26 13:10:10.051
84.0, 9.250642540398985, 15.6739207142964, 19.77659096568823, 24.806756406091154, 0.01600000075995922, 0.06400000303983688, 1.0240000486373901, 0.0, 0.0, 0.0, 0.0, 0.0, 1.70898181005482E9, 0.0, 2024-02-26 13:10:10.054
84.0, 7.373212762642652, 11.122462468221784, 12.820377048105001, 11.305717566050589, 0.01600000075995922, 0.06400000303983688, 1.0240000486373901, 0.0, 0.0, 0.0, 0.0, 0.0, 1.70898181005482E9, 0.0, 2024-02-26 13:10:10.054
85.0, 2.6123201190494, -14.282677930779755, 0.2131742974743247, -1.368803383782506, 0.01600000075995922, 0.06400000303983688, 1.0240000486373901, 0.0, 0.0, 0.0, 0.0, 0.0, 1.70898181006609E9, 0.0, 2024-02-26 13:10:10.066
85.0, 15.47757596662268, 2.4458945710211992, 25.988564792089164, 18.811696777120233, 0.01600000075995922, 0.06400000303983688, 1.0240000486373901, 0.0, 0.0, 0.0, 0.0, 0.0, 1.70898181006609E9, 0.0, 2024-02-26 13:10:10.066
86.0, 18.693889928516, -0.9686340885236859, 24.97879180405289, 11.69466716144234, 0.01600000075995922, 0.06400000303983688, 1.0240000486373901, 0.0, 0.0, 0.0, 0.0, 0.0, 1.708981810081634E9, 0.0, 2024-02-26 13:10:10.081
86.0, 12.141585206147283, -9.353489789180458, 7.6667949091643095, -20.95839935168624, 0.01600000075995922, 0.06400000303983688, 1.0240000486373901, 0.0, 0.0, 0.0, 0.0, 0.0, 1.708981810081634E9, 0.0, 2024-02-26 13:10:10.081
87.0, 18.27502113347873, -4.525278946384788, 29.275936853140593, 8.646648697555065, 0.01600000075995922, 0.06400000303983688, 1.0240000486373901, 0.0, 0.0, 0.0, 0.0, 0.0, 1.708981810084634E9, 0.0, 2024-02-26 13:10:10.084
87.0, 18.914544025901705, -0.6619622921571136, 27.574282373301685, 15.557983815670013, 0.01600000075995922, 0.06400000303983688, 1.0240000486373901, 0.0, 0.0, 0.0, 0.0, 0.0, 1.708981810084634E9, 0.0, 2024-02-26 13:10:10.084
88.0, 13.001762195955962, -6.3391304248943925, 16.07035010959953, -10.591396674513817, 0.01600000075995922, 0.06400000303983688, 1.0240000486373901, 0.0, 0.0, 0.0, 0.0, 0.0, 1.708981810095933E9, 0.0, 2024-02-26 13:10:10.095
88.0, 17.022154648322612, -8.586810298264027, 18.1572142848745, 0.2056944975629449, 0.01600000075995922, 0.06400000303983688, 1.0240000486373901, 0.0, 0.0, 0.0, 0.0, 0.0, 1.708981810095933E9, 0.0, 2024-02-26 13:10:10.095
89.0, 20.126271611545235, 0.19447479769587517, 36.19849167112261, 29.234797953628004, 0.01600000075995922, 0.06400000303983688, 1.0240000486373901, 0.0, 0.0, 0.0, 0.0, 0.0, 1.708981810111713E9, 0.0, 2024-02-26 13:10:10.111
89.0, 15.361639067996293, -4.667395144701004, 22.98168522771448, 9.783578284084797, 0.01600000075995922, 0.06400000303983688, 1.0240000486373901, 0.0, 0.0, 0.0, 0.0, 0.0, 1.708981810111713E9, 0.0, 2024-02-26 13:10:10.111
90.0, 13.45055019063875, -7.337683713063598, 13.26916504278779, -4.656175444833934, 0.01600000075995922, 0.06400000303983688, 1.0240000486373901, 0.0, 0.0, 0.0, 0.0, 0.0, 1.708981810115522E9, 0.0, 2024-02-26 13:10:10.115
90.0, 26.36816463759169, 9.850896483287215, 43.278122287243605, 33.558122302405536, 0.01600000075995922, 0.06400000303983688, 1.0240000486373901, 0.0, 0.0, 0.0, 0.0, 0.0, 1.708981810115522E9, 0.0, 2024-02-26 13:10:10.115
91.0, 23.264047674369067, 4.248526349663734, 32.24541741795838, 17.24093879573047, 0.01600000075995922, 0.06400000303983688, 1.0240000486373901, 0.0, 0.0, 0.0, 0.0, 0.0, 1.708981810126078E9, 0.0, 2024-02-26 13:10:10.126
91.0, 10.432450926396996, -2.494513270445168, 1.8400307781994343, -8.773805296048522, 0.01600000075995922, 0.06400000303983688, 1.0240000486373901, 0.0, 0.0, 0.0, 0.0, 0.0, 1.708981810126078E9, 0.0, 2024-02-26 13:10:10.126
92.0, 15.952543260995299, 0.8526971898972988, 24.810496306046844, 22.443139634095132, 0.01600000075995922, 0.06400000303983688, 1.0240000486373901, 0.0, 0.0, 0.0, 0.0, 0.0, 1.708981810142007E9, 0.0, 2024-02-26 13:10:10.142
92.0, 10.611966124270111, -1.8998691774904728, 18.95381297543645, 22.09158903826028, 0.01600000075995922, 0.06400000303983688, 1.0240000486373901, 0.0, 0.0, 0.0, 0.0, 0.0, 1.708981810142007E9, 0.0, 2024-02-26 13:10:10.142
93.0, 5.248949587810785, -3.6314428569748998, 0.07853789906948805, -5.3742362363263965, 0.01600000075995922, 0.06400000303983688, 1.0240000486373901, 0.0, 0.0, 0.0, 0.0, 0.0, 1.708981810145355E9, 0.0, 2024-02-26 13:10:10.145
93.0, 6.172704876866192, 2.81988456659019, 6.0399384284392, 3.7997383549809456, 0.01600000075995922, 0.06400000303983688, 1.0240000486373901, 0.0, 0.0, 0.0, 0.0, 0.0, 1.708981810145355E9, 0.0, 2024-02-26 13:10:10.145
94.0, 9.265602140221745, 6.593443621881306, 28.1240476667881, 23.987718315795064, 0.01600000075995922, 0.06400000303983688, 1.0240000486373901, 0.0, 0.0, 0.0, 0.0, 0.0, 1.708981810155972E9, 0.0, 2024-02-26 13:10:10.155
94.0, 5.327487486880273, -0.5871642930433154, 3.7959984550252557, 8.02208540495485, 0.01600000075995922, 0.06400000303983688, 1.0240000486373901, 0.0, 0.0, 0.0, 0.0, 0.0, 1.708981810155972E9, 0.0, 2024-02-26 13:10:10.155
95.0, 5.798714881297201, -3.0293189641088247, -2.7563062673434615, -5.187241238541901, 0.01600000075995922, 0.06400000303983688, 1.0240000486373901, 0.0, 0.0, 0.0, 0.0, 0.0, 1.70898181017152E9, 0.0, 2024-02-26 13:10:10.171
95.0, 12.926964196842164, 1.3052250845357776, 18.9725124752149, 25.479938398115337, 0.01600000075995922, 0.06400000303983688, 1.0240000486373901, 0.0, 0.0, 0.0, 0.0, 0.0, 1.70898181017152E9, 0.0, 2024-02-26 13:10:10.171
96.0, 4.773982293438166, -1.7876721788197756, 11.971419758163393, 10.269765278324485, 0.01600000075995922, 0.06400000303983688, 1.0240000486373901, 0.0, 0.0, 0.0, 0.0, 0.0, 1.708981810174655E9, 0.0, 2024-02-26 13:10:10.174
96.0, -2.129873024765402, -7.554597910493612, -7.917368206195533, -13.545917639508843, 0.01600000075995922, 0.06400000303983688, 1.0240000486373901, 0.0, 0.0, 0.0, 0.0, 0.0, 1.708981810174655E9, 0.0, 2024-02-26 13:10:10.174
97.0, 8.715836846735328, 6.324170825071633, 14.91098112333566, 17.173620596528053, 0.01600000075995922, 0.06400000303983688, 1.0240000486373901, 0.0, 0.0, 0.0, 0.0, 0.0, 1.708981810186738E9, 0.0, 2024-02-26 13:10:10.186
97.0, 2.653459018561989, 1.9634474767372012, 5.2246402380988, 16.03669100999832, 0.01600000075995922, 0.06400000303983688, 1.0240000486373901, 0.0, 0.0, 0.0, 0.0, 0.0, 1.708981810186738E9, 0.0, 2024-02-26 13:10:10.186
98.0, -1.5427087317220867, -1.6044170809909701, 2.5057329703122377, 1.1406694864854217, 0.01600000075995922, 0.06400000303983688, 1.0240000486373901, 0.0, 0.0, 0.0, 0.0, 0.0, 1.708981810202022E9, 0.0, 2024-02-26 13:10:10.202
98.0, 5.750096181873232, 3.268672561272979, 4.214867250062525, 5.430334735661745, 0.01600000075995922, 0.06400000303983688, 1.0240000486373901, 0.0, 0.0, 0.0, 0.0, 0.0, 1.708981810202022E9, 0.0, 2024-02-26 13:10:10.202
99.0, 4.960977291222662, 5.6547287330031395, 18.85657557658851, 24.447726010344923, 0.01600000075995922, 0.06400000303983688, 1.0240000486373901, 0.0, 0.0, 0.0, 0.0, 0.0, 1.708981810205289E9, 0.0, 2024-02-26 13:10:10.205
99.0, 0.3571604457683861, 2.861023466102779, 8.108103103935719, 9.226333190687, 0.01600000075995922, 0.06400000303983688, 1.0240000486373901, 0.0, 0.0, 0.0, 0.0, 0.0, 1.708981810205289E9, 0.0, 2024-02-26 13:10:10.205
100.0, -0.5142362439073622, -3.4519276591017842, -0.8265178902074695, -10.696113873273134, 0.01600000075995922, 0.06400000303983688, 1.0240000486373901, 0.0, 0.0, 0.0, 0.0, 0.0, 1.708981810217072E9, 0.0, 2024-02-26 13:10:10.217
100.0, 8.304447851609439, 7.027272016741335, 19.092189273796976, 22.656313931569457, 0.01600000075995922, 0.06400000303983688, 1.0240000486373901, 0.0, 0.0, 0.0, 0.0, 0.0, 1.708981810217072E9, 0.0, 2024-02-26 13:10:10.217
0.0, 8.250219302251935, 10.322123877704144, 15.247572119347751, 11.070103868842125, 0.01600000075995922, 0.06400000303983688, 1.0240000486373901, 0.0, 0.0, 0.0, 0.0, 0.0, 1.708981810219939E9, 0.0, 2024-02-26 13:10:10.219
1.0, 3.7249403558671474, 0.10097729880362749, -6.204494026489556, -10.86440937127918, 0.01600000075995922, 0.06400000303983688, 1.0240000486373901, 0.0, 0.0, 0.0, 0.0, 0.0, 1.708981810230994E9, 0.0, 2024-02-26 13:10:10.230
1.0, 9.23755289055407, 7.206787214614451, 10.266025378368795, 20.704086154699326, 0.01600000075995922, 0.06400000303983688, 1.0240000486373901, 0.0, 0.0, 0.0, 0.0, 0.0, 1.708981810230994E9, 0.0, 2024-02-26 13:10:10.230
2.0, 8.45591379981488, 7.210527114570141, 24.817976105958223, 22.95550592802465, 0.01600000075995922, 0.06400000303983688, 1.0240000486373901, 0.0, 0.0, 0.0, 0.0, 0.0, 1.708981810246522E9, 0.0, 2024-02-26 13:10:10.246
2.0, 7.285325113683939, 3.9942131526768208, 1.20798768568784, -0.5722046932205558, 0.01600000075995922, 0.06400000303983688, 1.0240000486373901, 0.0, 0.0, 0.0, 0.0, 0.0, 1.708981810246522E9, 0.0, 2024-02-26 13:10:10.246
3.0, 6.698160820640624, 3.134036162868142, 16.694913402199745, 2.8797229658812284, 0.01600000075995922, 0.06400000303983688, 1.0240000486373901, 0.0, 0.0, 0.0, 0.0, 0.0, 1.708981810249553E9, 0.0, 2024-02-26 13:10:10.249
3.0, 12.47630625218153, 4.936667941510677, 23.905440516769886, 25.01619080360979, 0.01600000075995922, 0.06400000303983688, 1.0240000486373901, 0.0, 0.0, 0.0, 0.0, 0.0, 1.708981810249553E9, 0.0, 2024-02-26 13:10:10.249
4.0, 7.120769515633583, 116.39316642098129, 18.355428982526064, 7.012312416918576, 0.01600000075995922, 0.06400000303983688, 1.0240000486373901, 0.0, 0.0, 0.0, 0.0, 0.0, 1.708981810261197E9, 0.0, 2024-02-26 13:10:10.261
4.0, 6.167095026932657, 83.26887251343578, -0.07853789906948805, -4.199907650239766, 0.01600000075995922, 0.06400000303983688, 1.0240000486373901, 0.0, 0.0, 0.0, 0.0, 0.0, 1.708981810261197E9, 0.0, 2024-02-26 13:10:10.261
5.0, 12.599722950719297, 47.90811843238771, 32.93355900980532, 32.47729121521115, 0.01600000075995922, 0.06400000303983688, 1.0240000486373901, 0.0, 0.0, 0.0, 0.0, 0.0, 1.708981810276788E9, 0.0, 2024-02-26 13:10:10.276
5.0, 11.840523259714246, -16.5266179041937, 26.751504383049905, 64.06074634101242, 0.01600000075995922, 0.06400000303983688, 1.0240000486373901, 0.0, 0.0, 0.0, 0.0, 0.0, 1.708981810276788E9, 0.0, 2024-02-26 13:10:10.276
6.0, 8.512012299150229, 15.748718713410199, 4.805771443061531, 17.843062688596547, 0.01600000075995922, 0.06400000303983688, 1.0240000486373901, 0.0, 0.0, 0.0, 0.0, 0.0, 1.708981810279572E9, 0.0, 2024-02-26 13:10:10.279
6.0, 17.31199689488858, 30.96637163311243, 28.643893760629, 37.78794915229082, 0.01600000075995922, 0.06400000303983688, 1.0240000486373901, 0.0, 0.0, 0.0, 0.0, 0.0, 1.708981810279572E9, 0.0, 2024-02-26 13:10:10.279
7.0, 14.974559422582388, 34.29862249363214, 26.14564059022814, 42.859253492206335, 0.01600000075995922, 0.06400000303983688, 1.0240000486373901, 0.0, 0.0, 0.0, 0.0, 0.0, 1.708981810291099E9, 0.0, 2024-02-26 13:10:10.291
7.0, 11.548811063170433, 29.107641355134547, 3.3098114607855678, 16.021731410175562, 0.01600000075995922, 0.06400000303983688, 1.0240000486373901, 0.0, 0.0, 0.0, 0.0, 0.0, 1.708981810291099E9, 0.0, 2024-02-26 13:10:10.291
8.0, 13.415021141059697, 29.163739854469895, 17.996398586779833, 22.660053831525147, 0.01600000075995922, 0.06400000303983688, 1.0240000486373901, 0.0, 0.0, 0.0, 0.0, 0.0, 1.708981810306697E9, 0.0, 2024-02-26 13:10:10.306
8.0, 16.631335102953017, 29.548949549905956, 25.670673295855522, 42.077614401467144, 0.01600000075995922, 0.06400000303983688, 1.0240000486373901, 0.0, 0.0, 0.0, 0.0, 0.0, 1.708981810306697E9, 0.0, 2024-02-26 13:10:10.306
9.0, 10.45302037615329, 30.700838736258447, 20.726525554433465, 23.6773066194728, 0.01600000075995922, 0.06400000303983688, 1.0240000486373901, 0.0, 0.0, 0.0, 0.0, 0.0, 1.708981810309662E9, 0.0, 2024-02-26 13:10:10.309
9.0, 9.016898793168366, 26.51215078588575, 6.350350124761462, -4.8880492420867085, 0.01600000075995922, 0.06400000303983688, 1.0240000486373901, 0.0, 0.0, 0.0, 0.0, 0.0, 1.708981810309662E9, 0.0, 2024-02-26 13:10:10.309
10.0, 18.85657557658851, 23.01160442736, 30.19595224224031, 37.76176985260099, 0.01600000075995922, 0.06400000303983688, 1.0240000486373901, 0.0, 0.0, 0.0, 0.0, 0.0, 1.708981810320999E9, 0.0, 2024-02-26 13:10:10.320
10.0, 16.227425907738507, 15.991812210530043, 14.05080413352698, 28.748610959388316, 0.01600000075995922, 0.06400000303983688, 1.0240000486373901, 0.0, 0.0, 0.0, 0.0, 0.0, 1.708981810320999E9, 0.0, 2024-02-26 13:10:10.320
11.0, 11.316937265917659, 17.6747671905905, 6.312951125204563, -1.0209926879033446, 0.01600000075995922, 0.06400000303983688, 1.0240000486373901, 0.0, 0.0, 0.0, 0.0, 0.0, 1.708981810336728E9, 0.0, 2024-02-26 13:10:10.336
11.0, 15.464486316777766, 29.171219654381275, 23.7147056190297, 28.501777562312782, 0.01600000075995922, 0.06400000303983688, 1.0240000486373901, 0.0, 0.0, 0.0, 0.0, 0.0, 1.708981810336728E9, 0.0, 2024-02-26 13:10:10.336
12.0, 14.952120022848248, 25.38644089922309, 28.99170445650816, 33.72641780041158, 0.01600000075995922, 0.06400000303983688, 1.0240000486373901, 0.0, 0.0, 0.0, 0.0, 0.0, 1.708981810339863E9, 0.0, 2024-02-26 13:10:10.339
12.0, 9.125355891883373, 19.32406307104975, 14.013405133970082, 12.730619449168444, 0.01600000075995922, 0.06400000303983688, 1.0240000486373901, 0.0, 0.0, 0.0, 0.0, 0.0, 1.708981810339863E9, 0.0, 2024-02-26 13:10:10.339
13.0, 13.355182741768658, 19.092189273796976, 17.577529791742563, 18.08989608567208, 0.01600000075995922, 0.06400000303983688, 1.0240000486373901, 0.0, 0.0, 0.0, 0.0, 0.0, 1.708981810351455E9, 0.0, 2024-02-26 13:10:10.351
13.0, 15.748718713410199, 25.479938398115337, 27.70891877170652, 33.03079640865326, 0.01600000075995922, 0.06400000303983688, 1.0240000486373901, 0.0, 0.0, 0.0, 0.0, 0.0, 1.708981810351455E9, 0.0, 2024-02-26 13:10:10.351
14.0, 18.594782579690218, 27.525663673877716, 24.731958406977355, 4.2036475501954556, 0.01600000075995922, 0.06400000303983688, 1.0240000486373901, 0.0, 0.0, 0.0, 0.0, 0.0, 1.708981810366946E9, 0.0, 2024-02-26 13:10:10.366
14.0, 12.8577760476619, 7.1843478148803115, 6.413928424008191, -8.06696420442313, 0.01600000075995922, 0.06400000303983688, 1.0240000486373901, 0.0, 0.0, 0.0, 0.0, 0.0, 1.708981810366946E9, 0.0, 2024-02-26 13:10:10.366
15.0, 23.35193532332778, 4.106410151347518, 38.008603249676526, 24.14105421397835, 0.01600000075995922, 0.06400000303983688, 1.0240000486373901, 0.0, 0.0, 0.0, 0.0, 0.0, 1.708981810370127E9, 0.0, 2024-02-26 13:10:10.370
15.0, 17.446633293293417, -10.385702176950872, 29.44797225110233, 16.15262790862471, 0.01600000075995922, 0.06400000303983688, 1.0240000486373901, 0.0, 0.0, 0.0, 0.0, 0.0, 1.708981810370127E9, 0.0, 2024-02-26 13:10:10.370
16.0, 9.566664086654782, -12.513705251738429, 5.710827232338488, -6.9412543177604675, 0.01600000075995922, 0.06400000303983688, 1.0240000486373901, 0.0, 0.0, 0.0, 0.0, 0.0, 1.708981810381195E9, 0.0, 2024-02-26 13:10:10.381
16.0, 10.400661776773632, -6.365309724584222, 18.751858377829194, 18.57234317995608, 0.01600000075995922, 0.06400000303983688, 1.0240000486373901, 0.0, 0.0, 0.0, 0.0, 0.0, 1.708981810381195E9, 0.0, 2024-02-26 13:10:10.381
17.0, 10.785871472209692, 1.3912427835166454, 24.058776414953172, 29.881800645962358, 0.01600000075995922, 0.06400000303983688, 1.0240000486373901, 0.0, 0.0, 0.0, 0.0, 0.0, 1.708981810396812E9, 0.0, 2024-02-26 13:10:10.396
17.0, 5.823024231009185, -2.745086567476392, 9.435767588205636, 6.03245862852782, 0.01600000075995922, 0.06400000303983688, 1.0240000486373901, 0.0, 0.0, 0.0, 0.0, 0.0, 1.708981810396812E9, 0.0, 2024-02-26 13:10:10.396
18.0, 6.002539428882301, -2.01206617616117, 13.71795303747058, 14.166741032153368, 0.01600000075995922, 0.06400000303983688, 1.0240000486373901, 0.0, 0.0, 0.0, 0.0, 0.0, 1.708981810399576E9, 0.0, 2024-02-26 13:10:10.399
18.0, 10.44180067628622, 2.251419773325324, 19.208126172423363, 36.905332762748, 0.01600000075995922, 0.06400000303983688, 1.0240000486373901, 0.0, 0.0, 0.0, 0.0, 0.0, 1.708981810399576E9, 0.0, 2024-02-26 13:10:10.399
19.0, 5.602370133623481, -4.2447864497080445, 5.306918037123978, 19.234305472113192, 0.01600000075995922, 0.06400000303983688, 1.0240000486373901, 0.0, 0.0, 0.0, 0.0, 0.0, 1.708981810410849E9, 0.0, 2024-02-26 13:10:10.410
19.0, -6.44384762365371, -8.83738359529525, -11.088803368620574, 6.002539428882301, 0.01600000075995922, 0.06400000303983688, 1.0240000486373901, 0.0, 0.0, 0.0, 0.0, 0.0, 1.708981810410849E9, 0.0, 2024-02-26 13:10:10.410
20.0, 7.449880711734295, -1.245386685244739, 20.11318196170032, 35.54774907883257, 0.01600000075995922, 0.06400000303983688, 1.0240000486373901, 0.0, 0.0, 0.0, 0.0, 0.0, 1.708981810426653E9, 0.0, 2024-02-26 13:10:10.426
20.0, 2.6852481681853533, 7.315244313329458, 7.917368206195533, 33.87975369859487, 0.01600000075995922, 0.06400000303983688, 1.0240000486373901, 0.0, 0.0, 0.0, 0.0, 0.0, 1.708981810426653E9, 0.0, 2024-02-26 13:10:10.426
21.0, -12.663301249966025, -4.861869942396879, -16.94174679927528, 4.379422848112881, 0.01600000075995922, 0.04800000227987766, 1.0240000486373901, 0.0, 0.0, 0.0, 0.0, 0.0, 1.708981810429738E9, 0.0, 2024-02-26 13:10:10.429
21.0, -6.335390524938703, -1.9858868764713407, 0.9985532881692052, 26.99085798021406, 0.01600000075995922, 0.04800000227987766, 1.0240000486373901, 0.0, 0.0, 0.0, 0.0, 0.0, 1.708981810429738E9, 0.0, 2024-02-26 13:10:10.429
22.0, -5.415375135838985, -0.4749672943726182, 3.496806458570063, 32.22671791817993, 0.01600000075995922, 0.04800000227987766, 1.0240000486373901, 0.0, 0.0, 0.0, 0.0, 0.0, 1.708981810441083E9, 0.0, 2024-02-26 13:10:10.441
22.0, -11.65726816188544, -10.239846078678966, -12.390288553200662, 14.443493628874421, 0.01600000075995922, 0.04800000227987766, 1.0240000486373901, 0.0, 0.0, 0.0, 0.0, 0.0, 1.708981810441083E9, 0.0, 2024-02-26 13:10:10.441
23.0, -7.0609311163425446, -8.586810298264027, -3.2387533616274595, 17.962739487178624, 0.01600000075995922, 0.04800000227987766, 1.0240000486373901, 0.0, 0.0, 0.0, 0.0, 0.0, 1.708981810457005E9, 0.0, 2024-02-26 13:10:10.457
23.0, 2.0382454758509994, -3.2836321610957384, 8.908441694453359, 37.275582858361304, 0.01600000075995922, 0.04800000227987766, 1.0240000486373901, 0.0, 0.0, 0.0, 0.0, 0.0, 1.708981810457005E9, 0.0, 2024-02-26 13:10:10.457
24.0, -0.9087956892326474, -5.003986140713096, 2.4384147711098194, 19.29040397144854, 0.01600000075995922, 0.04800000227987766, 1.0240000486373901, 0.0, 0.0, 0.0, 0.0, 0.0, 1.708981810460163E9, 0.0, 2024-02-26 13:10:10.460
24.0, -10.617575974203646, -13.916167735122144, -18.57234317995608, -1.7203539796173573, 0.01600000075995922, 0.04800000227987766, 1.0240000486373901, 0.0, 0.0, 0.0, 0.0, 0.0, 1.708981810460163E9, 0.0, 2024-02-26 13:10:10.460
25.0, 3.059238163754344, -0.44504809472709894, 13.31030394230038, 30.409126539714634, 0.01600000075995922, 0.04800000227987766, 1.0240000486373901, 0.0, 0.0, 0.0, 0.0, 0.0, 1.708981810471089E9, 0.0, 2024-02-26 13:10:10.471
25.0, -1.170588686130941, -3.8932358538731933, 0.5535051934421062, 17.596229291521013, 0.01600000075995922, 0.04800000227987766, 1.0240000486373901, 0.0, 0.0, 0.0, 0.0, 0.0, 1.708981810471089E9, 0.0, 2024-02-26 13:10:10.471
26.0, -6.686941120773554, -7.928587906062603, -13.545917639508843, -7.109549815766513, 0.01600000075995922, 0.04800000227987766, 1.0240000486373901, 0.0, 0.0, 0.0, 0.0, 0.0, 1.708981810486619E9, 0.0, 2024-02-26 13:10:10.486
26.0, 1.9784070765599608, -4.84317044261843, 8.164201603271067, 23.00038472749293, 0.01600000075995922, 0.04800000227987766, 1.0240000486373901, 0.0, 0.0, 0.0, 0.0, 0.0, 1.708981810486619E9, 0.0, 2024-02-26 13:10:10.486
27.0, 0.23561369720846415, -2.045725275762379, 9.125355891883373, 24.862854905426502, 0.01600000075995922, 0.04800000227987766, 1.0240000486373901, 0.0, 0.0, 0.0, 0.0, 0.0, 1.708981810489517E9, 0.0, 2024-02-26 13:10:10.489
27.0, -3.1489957626909018, -4.44300114735961, -2.501993070356548, 6.761739119887352, 0.01600000075995922, 0.04800000227987766, 1.0240000486373901, 0.0, 0.0, 0.0, 0.0, 0.0, 1.708981810489517E9, 0.0, 2024-02-26 13:10:10.489
28.0, 3.975513652898371, -1.5819776812568307, 5.65098883304745, 7.083370516076684, 0.01600000075995922, 0.04800000227987766, 1.0240000486373901, 0.0, 0.0, 0.0, 0.0, 0.0, 1.708981810500943E9, 0.0, 2024-02-26 13:10:10.500
28.0, 0.12715659849345684, 1.8026317786425352, 12.592243150807917, 25.046110003255308, 0.01600000075995922, 0.04800000227987766, 1.0240000486373901, 0.0, 0.0, 0.0, 0.0, 0.0, 1.708981810500943E9, 0.0, 2024-02-26 13:10:10.500
29.0, 3.1901346622034907, -5.138622539117932, 8.45965369977057, 11.926540958695114, 0.01600000075995922, 0.04800000227987766, 1.0240000486373901, 0.0, 0.0, 0.0, 0.0, 0.0, 1.708981810517025E9, 0.0, 2024-02-26 13:10:10.517
29.0, 0.7367602912709117, -4.065271251834929, -4.480400146916509, -3.141515962779522, 0.01600000075995922, 0.04800000227987766, 1.0240000486373901, 0.0, 0.0, 0.0, 0.0, 0.0, 1.708981810517025E9, 0.0, 2024-02-26 13:10:10.517
30.0, 4.585117345675826, 1.9933666763827205, 20.352535558864474, 21.833535941317677, 0.01600000075995922, 0.04800000227987766, 1.0240000486373901, 0.0, 0.0, 0.0, 0.0, 0.0, 1.708981810520144E9, 0.0, 2024-02-26 13:10:10.520
30.0, 7.356383212842047, 2.8385840663686395, 9.297391289845109, 18.09363598562777, 0.01600000075995922, 0.04800000227987766, 1.0240000486373901, 0.0, 0.0, 0.0, 0.0, 0.0, 1.708981810520144E9, 0.0, 2024-02-26 13:10:10.520
31.0, 5.108703339472413, -3.818437854759395, -8.295098101720214, -8.276398601941764, 0.01600000075995922, 0.04800000227987766, 1.0240000486373901, 0.0, 0.0, 0.0, 0.0, 0.0, 1.708981810531448E9, 0.0, 2024-02-26 13:10:10.531
31.0, 3.534205458126962, -0.44504809472709894, 5.63976913318038, 16.86320890020579, 0.01600000075995922, 0.04800000227987766, 1.0240000486373901, 0.0, 0.0, 0.0, 0.0, 0.0, 1.708981810531448E9, 0.0, 2024-02-26 13:10:10.531
32.0, 11.6722277617082, 3.418268559500575, 16.246125407516956, 23.422993422485888, 0.01600000075995922, 0.04800000227987766, 1.0240000486373901, 0.0, 0.0, 0.0, 0.0, 0.0, 1.708981810547029E9, 0.0, 2024-02-26 13:10:10.547
32.0, 3.0031396644189954, -3.590303957462311, -6.668241620995104, -2.651589068584144, 0.01600000075995922, 0.04800000227987766, 1.0240000486373901, 0.0, 0.0, 0.0, 0.0, 0.0, 1.708981810547029E9, 0.0, 2024-02-26 13:10:10.547
33.0, -0.19073489774018526, -3.4107887595891953, -6.814097719267011, -1.084570987150073, 0.01600000075995922, 0.04800000227987766, 1.0240000486373901, 0.0, 0.0, 0.0, 0.0, 0.0, 1.708981810550391E9, 0.0, 2024-02-26 13:10:10.550
33.0, 5.471473635174334, 1.7801923789083958, 11.103762968443334, 20.5657098563388, 0.01600000075995922, 0.04800000227987766, 1.0240000486373901, 0.0, 0.0, 0.0, 0.0, 0.0, 1.708981810550391E9, 0.0, 2024-02-26 13:10:10.550
34.0, -1.4249018831178546, -2.5880107693374157, -0.3814697954803705, 4.274705649353564, 0.01600000075995922, 0.04800000227987766, 1.0240000486373901, 0.0, 0.0, 0.0, 0.0, 0.0, 1.708981810561421E9, 0.0, 2024-02-26 13:10:10.561
34.0, -9.746179284527898, -9.869595983065665, -22.327202735468745, -14.757645225152373, 0.01600000075995922, 0.04800000227987766, 1.0240000486373901, 0.0, 0.0, 0.0, 0.0, 0.0, 1.708981810561421E9, 0.0, 2024-02-26 13:10:10.561
35.0, 10.02667178120464, 16.05913040973246, 23.052743326872587, 35.42059248033911, 0.01600000075995922, 0.04800000227987766, 1.0240000486373901, 0.0, 0.0, 0.0, 0.0, 0.0, 1.708981810576966E9, 0.0, 2024-02-26 13:10:10.576
35.0, 10.673674473538995, 13.153228144161403, 19.413820669986308, 25.431319698691368, 0.01600000075995922, 0.04800000227987766, 1.0240000486373901, 0.0, 0.0, 0.0, 0.0, 0.0, 1.708981810576966E9, 0.0, 2024-02-26 13:10:10.576
36.0, 6.02871872857213, 16.88938819989562, 10.572697174735367, 14.821223524399102, 0.01600000075995922, 0.04800000227987766, 1.0240000486373901, 0.0, 0.0, 0.0, 0.0, 0.0, 1.708981810580111E9, 0.0, 2024-02-26 13:10:10.580
36.0, 19.604555567726493, 26.833782182075083, 39.71773752942681, 47.01054244302213, 0.01600000075995922, 0.04800000227987766, 1.0240000486373901, 0.0, 0.0, 0.0, 0.0, 0.0, 1.708981810580111E9, 0.0, 2024-02-26 13:10:10.580
37.0, 21.29125044774264, 36.71085796505213, 52.44461707863957, 58.27138120960444, 0.01600000075995922, 0.04800000227987766, 1.0240000486373901, 0.0, 0.0, 0.0, 0.0, 0.0, 1.708981810590938E9, 0.0, 2024-02-26 13:10:10.590
37.0, 17.932820287533104, 36.456544768065214, 40.054328525438905, 47.04420154262334, 0.01600000075995922, 0.04800000227987766, 1.0240000486373901, 0.0, 0.0, 0.0, 0.0, 0.0, 1.708981810590938E9, 0.0, 2024-02-26 13:10:10.590
38.0, 26.414913387037814, 35.199938382953405, 54.479122654534876, 54.916690949350595, 0.01600000075995922, 0.04800000227987766, 1.0240000486373901, 0.0, 0.0, 0.0, 0.0, 0.0, 1.708981810606518E9, 0.0, 2024-02-26 13:10:10.606
38.0, 28.034290067851543, 42.062654801644385, 65.16027692798525, 76.7764061903581, 0.01600000075995922, 0.04800000227987766, 1.0240000486373901, 0.0, 0.0, 0.0, 0.0, 0.0, 1.708981810606518E9, 0.0, 2024-02-26 13:10:10.606
39.0, 27.678999572061002, 37.16338585969061, 58.28260090947151, 63.821392743848264, 0.01600000075995922, 0.04800000227987766, 1.0240000486373901, 0.0, 0.0, 0.0, 0.0, 0.0, 1.708981810609701E9, 0.0, 2024-02-26 13:10:10.609
39.0, 17.570049991831183, 32.8662408106029, 43.19210458826274, 45.3537667626515, 0.01600000075995922, 0.04800000227987766, 1.0240000486373901, 0.0, 0.0, 0.0, 0.0, 0.0, 1.708981810609701E9, 0.0, 2024-02-26 13:10:10.609
40.0, 27.649080372415483, 38.77528274059296, 65.44450932461768, 76.89608298894018, 0.01600000075995922, 0.04800000227987766, 1.0240000486373901, 0.0, 0.0, 0.0, 0.0, 0.0, 1.708981810621084E9, 0.0, 2024-02-26 13:10:10.621
40.0, 24.395367410965264, 32.86250091064721, 50.81028079800308, 57.755275015719235, 0.01600000075995922, 0.04800000227987766, 1.0240000486373901, 0.0, 0.0, 0.0, 0.0, 0.0, 1.708981810621084E9, 0.0, 2024-02-26 13:10:10.621
41.0, 21.579222744330764, 27.79867637064308, 41.99533660244197, 39.89351282734424, 0.01600000075995922, 0.0800000037997961, 1.0240000486373901, 0.0, 0.0, 0.0, 0.0, 0.0, 1.708981810636949E9, 0.0, 2024-02-26 13:10:10.636
41.0, 29.051542855799198, 35.28595608193427, 62.41893026046455, 65.5118275238201, 0.01600000075995922, 0.0800000037997961, 1.0240000486373901, 0.0, 0.0, 0.0, 0.0, 0.0, 1.708981810636949E9, 0.0, 2024-02-26 13:10:10.636
42.0, 30.6073412373662, 33.85357439890504, 60.02165438886732, 65.74370132107288, 0.01600000075995922, 0.0800000037997961, 1.0240000486373901, 0.0, 0.0, 0.0, 0.0, 0.0, 1.708981810640205E9, 0.0, 2024-02-26 13:10:10.640
42.0, 24.21211231313646, 24.343008811585605, 42.53014229610562, 39.07821463700384, 0.01600000075995922, 0.0800000037997961, 1.0240000486373901, 0.0, 0.0, 0.0, 0.0, 0.0, 1.708981810640205E9, 0.0, 2024-02-26 13:10:10.640
43.0, 29.466671750880778, 16.03669100999832, 38.487310444004834, 43.19958438817412, 0.01600000075995922, 0.0800000037997961, 1.0240000486373901, 0.0, 0.0, 0.0, 0.0, 0.0, 1.708981810651406E9, 0.0, 2024-02-26 13:10:10.651
43.0, 31.84524812269956, 21.029457450844347, 54.68481715209782, 55.88532503787428, 0.01600000075995922, 0.0800000037997961, 1.0240000486373901, 0.0, 0.0, 0.0, 0.0, 0.0, 1.708981810651406E9, 0.0, 2024-02-26 13:10:10.651
44.0, 28.266163865104318, 17.24467869568616, 46.124186153523624, 43.13974598888308, 0.01600000075995922, 0.0800000037997961, 1.0240000486373901, 0.0, 0.0, 0.0, 0.0, 0.0, 1.708981810666712E9, 0.0, 2024-02-26 13:10:10.666
44.0, 17.577529791742563, 8.242739502340555, 26.347595187835395, 21.36230854690075, 0.01600000075995922, 0.0800000037997961, 1.0240000486373901, 0.0, 0.0, 0.0, 0.0, 0.0, 1.708981810666712E9, 0.0, 2024-02-26 13:10:10.666
45.0, 31.620854125358164, 13.28786454256624, 48.906671720556915, 53.54040776565671, 0.01600000075995922, 0.0800000037997961, 1.0240000486373901, 0.0, 0.0, 0.0, 0.0, 0.0, 1.708981810669611E9, 0.0, 2024-02-26 13:10:10.669
45.0, 28.57283566147089, 14.10316273290664, 38.846340839751065, 45.37620616238564, 0.01600000075995922, 0.0800000037997961, 1.0240000486373901, 0.0, 0.0, 0.0, 0.0, 0.0, 1.708981810669611E9, 0.0, 2024-02-26 13:10:10.669
46.0, 22.20378603693098, 3.8932358538731933, 15.090496321208775, 17.955259687267244, 0.01600000075995922, 0.0800000037997961, 1.0240000486373901, 0.0, 0.0, 0.0, 0.0, 0.0, 1.708981810680839E9, 0.0, 2024-02-26 13:10:10.680
46.0, 26.321415888145566, 7.285325113683939, 34.34350129310042, 35.82076177559793, 0.01600000075995922, 0.0800000037997961, 1.0240000486373901, 0.0, 0.0, 0.0, 0.0, 0.0, 1.708981810680839E9, 0.0, 2024-02-26 13:10:10.680
47.0, 26.295236588455737, 5.407895335927606, 35.07278178445995, 38.09836084861308, 0.01600000075995922, 0.0800000037997961, 1.0240000486373901, 0.0, 0.0, 0.0, 0.0, 0.0, 1.708981810713405E9, 0.0, 2024-02-26 13:10:10.713
47.0, 21.104255449958146, -4.476660246960819, 14.428534029051661, 13.014851845800877, 0.01600000075995922, 0.0800000037997961, 1.0240000486373901, 0.0, 0.0, 0.0, 0.0, 0.0, 1.708981810713405E9, 0.0, 2024-02-26 13:10:10.713
48.0, 19.944886463694274, -10.43806077633053, 17.70468639023602, 9.215113490819931, 0.01600000075995922, 0.0800000037997961, 1.0240000486373901, 0.0, 0.0, 0.0, 0.0, 0.0, 1.70898181071669E9, 0.0, 2024-02-26 13:10:10.716
48.0, 20.745225054211915, -5.811804531142116, 31.467518227174878, 32.855021110735834, 0.01600000075995922, 0.0800000037997961, 1.0240000486373901, 0.0, 0.0, 0.0, 0.0, 0.0, 1.70898181071669E9, 0.0, 2024-02-26 13:10:10.716
49.0, 11.743285860866308, 0.07479799911379814, 15.954413210973144, 12.08735665678978, 0.01600000075995922, 0.0800000037997961, 1.0240000486373901, 0.0, 0.0, 0.0, 0.0, 0.0, 1.708981810720009E9, 0.0, 2024-02-26 13:10:10.720
49.0, 11.541331263259053, -7.0609311163425446, 1.1032704869285226, -1.8811696777120233, 0.01600000075995922, 0.0800000037997961, 1.0240000486373901, 0.0, 0.0, 0.0, 0.0, 0.0, 1.708981810720009E9, 0.0, 2024-02-26 13:10:10.720
50.0, 16.721092701889575, -2.8011850668117404, 23.39307422284037, 26.833782182075083, 0.01600000075995922, 0.0800000037997961, 1.0240000486373901, 0.0, 0.0, 0.0, 0.0, 0.0, 1.70898181072271E9, 0.0, 2024-02-26 13:10:10.722
50.0, 9.480646387673914, -5.826764130964875, 15.247572119347751, 18.08615618571639, 0.01600000075995922, 0.0800000037997961, 1.0240000486373901, 0.0, 0.0, 0.0, 0.0, 0.0, 1.70898181072271E9, 0.0, 2024-02-26 13:10:10.722
51.0, 6.099776827730238, -6.42514812387526, -13.100869544781744, -10.733512872830033, 0.01600000075995922, 0.06400000303983688, 1.0240000486373901, 0.0, 0.0, 0.0, 0.0, 0.0, 1.70898181072645E9, 0.0, 2024-02-26 13:10:10.726
51.0, 13.160707944072783, -0.6170834926888347, 21.70637934282422, 21.063116550445557, 0.01600000075995922, 0.06400000303983688, 1.0240000486373901, 0.0, 0.0, 0.0, 0.0, 0.0, 1.70898181072645E9, 0.0, 2024-02-26 13:10:10.726
52.0, 15.860915712080896, 3.134036162868142, 23.056483226828277, 25.39392069913447, 0.0, 0.06400000303983688, 1.0240000486373901, 0.0, 0.0, 0.0, 0.0, 0.0, 1.708981810740942E9, 0.0, 2024-02-26 13:10:10.740
52.0, 8.676567897200584, 0.4226086949929595, 9.28617158997804, 2.5992304692044854, 0.0, 0.06400000303983688, 1.0240000486373901, 0.0, 0.0, 0.0, 0.0, 0.0, 1.708981810740942E9, 0.0, 2024-02-26 13:10:10.740
53.0, 11.66474796179682, 7.401262012310326, 11.750765660777688, 8.134282403625548, 0.0, 0.06400000303983688, 1.0240000486373901, 0.0, 0.0, 0.0, 0.0, 0.0, 1.708981810756641E9, 0.0, 2024-02-26 13:10:10.756
53.0, 20.05708346236497, 13.351442841812968, 32.32021541707218, 36.89411306288093, 0.0, 0.06400000303983688, 1.0240000486373901, 0.0, 0.0, 0.0, 0.0, 0.0, 1.708981810756641E9, 0.0, 2024-02-26 13:10:10.756
54.0, 17.72712578997016, 6.799138119444251, 25.831488993950188, 20.9359599519521, 0.0, 0.06400000303983688, 1.0240000486373901, 0.0, 0.0, 0.0, 0.0, 0.0, 1.708981810759634E9, 0.0, 2024-02-26 13:10:10.759
54.0, 7.876229306682944, 5.075044239871204, 10.47171987593174, 7.1843478148803115, 0.0, 0.06400000303983688, 1.0240000486373901, 0.0, 0.0, 0.0, 0.0, 0.0, 1.708981810759634E9, 0.0, 2024-02-26 13:10:10.759
55.0, 27.40224697533995, 23.38933432288468, 40.38343972153962, 49.18716421723366, 0.0, 0.06400000303983688, 1.0240000486373901, 0.0, 0.0, 0.0, 0.0, 0.0, 1.708981810770934E9, 0.0, 2024-02-26 13:10:10.770
55.0, 22.17386683728546, 23.019084227271378, 30.21839164197445, 36.20597147103399, 0.0, 0.06400000303983688, 1.0240000486373901, 0.0, 0.0, 0.0, 0.0, 0.0, 1.708981810770934E9, 0.0, 2024-02-26 13:10:10.770
56.0, 14.196660231798887, 10.191227379254997, 18.96129277534783, 12.401508253067732, 0.0, 0.06400000303983688, 1.0240000486373901, 0.0, 0.0, 0.0, 0.0, 0.0, 1.708981810786778E9, 0.0, 2024-02-26 13:10:10.786
56.0, 26.321415888145566, 23.912920316681266, 41.41939200926572, 42.077614401467144, 0.0, 0.06400000303983688, 1.0240000486373901, 0.0, 0.0, 0.0, 0.0, 0.0, 1.708981810786778E9, 0.0, 2024-02-26 13:10:10.786
57.0, 27.675259672105312, 22.211265836842358, 48.81691412162036, 47.81462093349546, 0.0, 0.06400000303983688, 1.0240000486373901, 0.0, 0.0, 0.0, 0.0, 0.0, 1.708981810789658E9, 0.0, 2024-02-26 13:10:10.789
57.0, 21.096775650046766, 14.293897630646825, 30.783116535283625, 21.848495541140437, 0.0, 0.06400000303983688, 1.0240000486373901, 0.0, 0.0, 0.0, 0.0, 0.0, 1.708981810789658E9, 0.0, 2024-02-26 13:10:10.789
58.0, 23.849342017434537, 12.663301249966025, 28.296083064749837, 23.31453632377088, 0.0, 0.06400000303983688, 1.0240000486373901, 0.0, 0.0, 0.0, 0.0, 0.0, 1.708981810801384E9, 0.0, 2024-02-26 13:10:10.801
58.0, 25.479938398115337, 19.062270074151456, 43.02380909025669, 46.30744125135243, 0.0, 0.06400000303983688, 1.0240000486373901, 0.0, 0.0, 0.0, 0.0, 0.0, 1.708981810801384E9, 0.0, 2024-02-26 13:10:10.801
59.0, 19.469919169321656, 14.170480932109058, 30.53628313820809, 27.33118887618184, 0.0, 0.06400000303983688, 1.0240000486373901, 0.0, 0.0, 0.0, 0.0, 0.0, 1.708981810817024E9, 0.0, 2024-02-26 13:10:10.817
59.0, 11.70588686130941, 8.253959202207625, 7.416221612133086, 5.591150433756411, 0.0, 0.06400000303983688, 1.0240000486373901, 0.0, 0.0, 0.0, 0.0, 0.0, 1.708981810817024E9, 0.0, 2024-02-26 13:10:10.817
60.0, 25.509857597760856, 19.69057326670736, 45.03587526641786, 47.17883794102818, 0.0, 0.06400000303983688, 1.0560000501573086, 0.0, 0.0, 0.0, 0.0, 0.0, 1.708981810819851E9, 0.0, 2024-02-26 13:10:10.819
60.0, 23.916660216636956, 20.92100035212934, 33.221531306393445, 40.001969926059246, 0.0, 0.06400000303983688, 1.0560000501573086, 0.0, 0.0, 0.0, 0.0, 0.0, 1.708981810819851E9, 0.0, 2024-02-26 13:10:10.819
61.0, 14.163001132197678, 8.82990379538387, 6.0174990287050605, 14.140561732463539, 0.0, 0.06400000303983688, 1.0560000501573086, 0.0, 0.0, 0.0, 0.0, 0.0, 1.708981810830935E9, 0.0, 2024-02-26 13:10:10.830
61.0, 15.913274311460555, 17.29703729506582, 27.118014578707516, 38.35641394555569, 0.0, 0.06400000303983688, 1.0560000501573086, 0.0, 0.0, 0.0, 0.0, 0.0, 1.708981810830935E9, 0.0, 2024-02-26 13:10:10.830
62.0, 20.57692955620587, 23.662347019650042, 32.006063820794225, 51.356306191533804, -0.01600000075995922, 0.06400000303983688, 1.0560000501573086, 0.0, 0.0, 0.0, 0.0, 0.0, 1.708981810846572E9, 0.0, 2024-02-26 13:10:10.846
62.0, 16.291004206985235, 12.154674855992198, 11.167341267690063, 14.308857230469584, -0.01600000075995922, 0.06400000303983688, 1.0560000501573086, 0.0, 0.0, 0.0, 0.0, 0.0, 1.708981810846572E9, 0.0, 2024-02-26 13:10:10.846
63.0, 16.83702960051596, 15.890834911726415, 14.664147726260126, 24.432766410522163, -0.01600000075995922, 0.06400000303983688, 1.0560000501573086, 0.0, 0.0, 0.0, 0.0, 0.0, 1.708981810849574E9, 0.0, 2024-02-26 13:10:10.849
63.0, 15.27749131899327, 19.159507472999394, 30.289449741132557, 50.077260406687856, -0.01600000075995922, 0.06400000303983688, 1.0560000501573086, 0.0, 0.0, 0.0, 0.0, 0.0, 1.708981810849574E9, 0.0, 2024-02-26 13:10:10.849
64.0, 3.459407459013164, 6.548564822413027, 5.961400529369712, 26.269057288765907, -0.01600000075995922, 0.06400000303983688, 1.0560000501573086, 0.0, 0.0, 0.0, 0.0, 0.0, 1.708981810860849E9, 0.0, 2024-02-26 13:10:10.860
64.0, -14.181700631976128, -6.324170825071633, -22.394520934671164, -3.653882256709039, -0.01600000075995922, 0.06400000303983688, 1.0560000501573086, 0.0, 0.0, 0.0, 0.0, 0.0, 1.708981810860849E9, 0.0, 2024-02-26 13:10:10.860
65.0, -11.616129262372851, 6.7430396201089025, 3.7997383549809456, 31.538576326332986, -0.01600000075995922, 0.06400000303983688, 1.0560000501573086, 0.0, 0.0, 0.0, 0.0, 0.0, 1.708981810876723E9, 0.0, 2024-02-26 13:10:10.876
65.0, -15.658961114473641, 3.900715653784573, -19.537237368524075, 18.351689082570374, -0.01600000075995922, 0.06400000303983688, 1.0560000501573086, 0.0, 0.0, 0.0, 0.0, 0.0, 1.708981810876723E9, 0.0, 2024-02-26 13:10:10.876
66.0, -31.953705221414566, -18.15347438491881, -55.45897644292563, -11.036444769240916, -0.01600000075995922, 0.06400000303983688, 1.0560000501573086, 0.0, 0.0, 0.0, 0.0, 0.0, 1.708981810879633E9, 0.0, 2024-02-26 13:10:10.879
66.0, -26.370034587569535, -9.2637321902439, -41.49045010842383, 11.829303559847176, -0.01600000075995922, 0.06400000303983688, 1.0560000501573086, 0.0, 0.0, 0.0, 0.0, 0.0, 1.708981810879633E9, 0.0, 2024-02-26 13:10:10.879
67.0, -39.5382223315537, -12.943793746642768, -46.868426244705915, 17.128741797059774, -0.01600000075995922, 0.06400000303983688, 1.0560000501573086, 0.0, 0.0, 0.0, 0.0, 0.0, 1.708981810890934E9, 0.0, 2024-02-26 13:10:10.890
67.0, -46.33736045099795, -25.39392069913447, -77.20649468526244, -15.367248917929828, -0.01600000075995922, 0.06400000303983688, 1.0560000501573086, 0.0, 0.0, 0.0, 0.0, 0.0, 1.708981810890934E9, 0.0, 2024-02-26 13:10:10.890
68.0, -36.56500186678022, -14.86610232386738, -62.8078798558563, -4.121369751170278, -0.01600000075995922, 0.06400000303983688, 1.0560000501573086, 0.0, 0.0, 0.0, 0.0, 0.0, 1.708981810906745E9, 0.0, 2024-02-26 13:10:10.906
68.0, -19.570896468125284, 2.7076875679194927, -26.51589068584144, 38.58080794289708, -0.01600000075995922, 0.06400000303983688, 1.0560000501573086, 0.0, 0.0, 0.0, 0.0, 0.0, 1.708981810906745E9, 0.0, 2024-02-26 13:10:10.906
69.0, -7.3040246134623885, 6.245632926002145, -26.58320888504386, 28.318522464483976, -0.01600000075995922, 0.06400000303983688, 1.0560000501573086, 0.0, 0.0, 0.0, 0.0, 0.0, 1.708981810909643E9, 0.0, 2024-02-26 13:10:10.909
69.0, -5.677168132737279, 5.071304339915514, -34.96058478578925, 18.89397457614541, -0.01600000075995922, 0.06400000303983688, 1.0560000501573086, 0.0, 0.0, 0.0, 0.0, 0.0, 1.708981810909643E9, 0.0, 2024-02-26 13:10:10.909
70.0, 19.574636368080974, 24.17097341362387, 11.406694864854217, 69.44994217716157, -0.01600000075995922, 0.06400000303983688, 1.0240000486373901, 0.0, 0.0, 0.0, 0.0, 0.0, 1.708981810920948E9, 0.0, 2024-02-26 13:10:10.920
70.0, 15.70757981389761, 21.855975341051817, 12.685740649700165, 47.94177753198892, -0.01600000075995922, 0.06400000303983688, 1.0240000486373901, 0.0, 0.0, 0.0, 0.0, 0.0, 1.708981810920948E9, 0.0, 2024-02-26 13:10:10.920
71.0, 11.814343960024416, 14.424794129095972, -6.600923421792686, 12.270611754618585, -0.01600000075995922, 0.0800000037997961, 1.0240000486373901, 0.0, 0.0, 0.0, 0.0, 0.0, 1.708981810936568E9, 0.0, 2024-02-26 13:10:10.936
