%OpenBCI Raw EXG Data
%Number of channels = 4
%Sample Rate = 200 Hz
%Board = OpenBCI_GUI$BoardGanglionBLE
Sample Index, EXG Channel 0, EXG Channel 1, EXG Channel 2, EXG Channel 3, Accel Channel 0, Accel Channel 1, Accel Channel 2, Other, Other, Other, Other, Other, Timestamp, Other, Timestamp (Formatted)
0.0, 67.43039620108902, 40.428318521007895, 32.81575216120109, -13.996575584169477, 0.0, 0.0, 0.0, 0.0, 0.0, 0.0, 0.0, 0.0, 1.70734011661E9, 0.0, 2024-02-07 13:08:36.610
1.0, 111.22836458217353, 53.776021462865174, 9.796667933929712, -39.20350128551945, 0.0, 0.04800000227987766, 0.0, 0.0, 0.0, 0.0, 0.0, 0.0, 1.707340116621571E9, 0.0, 2024-02-07 13:08:36.621
1.0, 159.35339721199125, 97.81334344111383, -36.87728351308033, -75.48427075566724, 0.0, 0.04800000227987766, 0.0, 0.0, 0.0, 0.0, 0.0, 0.0, 1.707340116621571E9, 0.0, 2024-02-07 13:08:36.621
2.0, 96.32486325874925, 50.548487801104784, 12.567933801095933, -3.588434007484466, -0.06400000303983688, 0.04800000227987766, 0.0, 0.0, 0.0, 0.0, 0.0, 0.0, 1.707340116640598E9, 0.0, 2024-02-07 13:08:36.640
2.0, 120.22282397560775, 51.85745278559625, -0.17390534793958068, -15.428957267198712, -0.06400000303983688, 0.04800000227987766, 0.0, 0.0, 0.0, 0.0, 0.0, 0.0, 1.707340116640598E9, 0.0, 2024-02-07 13:08:36.640
3.0, 147.79336644895375, 126.69659079890698, -35.59449782827869, -81.43819148512557, -0.06400000303983688, 0.04800000227987766, 0.0, 0.0, 0.0, 0.0, 0.0, 0.0, 1.707340116643554E9, 0.0, 2024-02-07 13:08:36.643
3.0, 142.6622237097472, 81.25680633727461, -14.172350882086903, -46.94135429384187, -0.06400000303983688, 0.04800000227987766, 0.0, 0.0, 0.0, 0.0, 0.0, 0.0, 1.707340116643554E9, 0.0, 2024-02-07 13:08:36.643
4.0, 116.7970756161958, 76.95966128818691, 0.2898422465659678, -20.208549410570413, -0.06400000303983688, 0.04800000227987766, 0.0, 0.0, 0.0, 0.0, 0.0, 0.0, 1.707340116651254E9, 0.0, 2024-02-07 13:08:36.651
4.0, 122.31342805083841, 117.73579050507396, -37.93941510049626, -64.54880328522995, -0.06400000303983688, 0.04800000227987766, 0.0, 0.0, 0.0, 0.0, 0.0, 0.0, 1.707340116651254E9, 0.0, 2024-02-07 13:08:36.651
5.0, 183.14290083013475, 117.59741420671344, -49.477006463799626, -73.20667168265209, -0.06400000303983688, 0.04800000227987766, 0.0, 0.0, 0.0, 0.0, 0.0, 0.0, 1.707340116666886E9, 0.0, 2024-02-07 13:08:36.666
5.0, 128.1027931822464, 66.2186686154455, -8.375505950767547, -12.538014601450413, -0.06400000303983688, 0.04800000227987766, 0.0, 0.0, 0.0, 0.0, 0.0, 0.0, 1.707340116666886E9, 0.0, 2024-02-07 13:08:36.666
6.0, 136.74196207989007, 101.54576359689236, -25.17139665177092, -43.52682563429698, -0.06400000303983688, 0.04800000227987766, 0.0, 0.0, 0.0, 0.0, 0.0, 0.0, 1.707340116669797E9, 0.0, 2024-02-07 13:08:36.669
6.0, 190.9405922377482, 125.73543651029468, -58.07129656197503, -95.61241231719032, -0.06400000303983688, 0.04800000227987766, 0.0, 0.0, 0.0, 0.0, 0.0, 0.0, 1.707340116669797E9, 0.0, 2024-02-07 13:08:36.669
7.0, 108.89840690977871, 93.47505949251354, -12.567933801095933, -14.168610982131213, -0.06400000303983688, 0.04800000227987766, 0.0, 0.0, 0.0, 0.0, 0.0, 0.0, 1.707340116681237E9, 0.0, 2024-02-07 13:08:36.681
7.0, 106.19071934185922, 106.04112334363163, -20.601238905917853, -10.350173127371818, -0.06400000303983688, 0.04800000227987766, 0.0, 0.0, 0.0, 0.0, 0.0, 0.0, 1.707340116681237E9, 0.0, 2024-02-07 13:08:36.681
8.0, 164.61917634960264, 112.89262006245553, -44.15886872680858, -64.31692948797718, -0.06400000303983688, 0.04800000227987766, 0.0, 0.0, 0.0, 0.0, 0.0, 0.0, 1.707340116696892E9, 0.0, 2024-02-07 13:08:36.696
8.0, 142.79686010815203, 99.21206602454185, -18.37599843228236, -12.762408598791808, -0.06400000303983688, 0.04800000227987766, 0.0, 0.0, 0.0, 0.0, 0.0, 0.0, 1.707340116696892E9, 0.0, 2024-02-07 13:08:36.696
9.0, 89.40978824067861, 60.02539428882301, 8.24834935227409, 28.671943010296673, -0.06400000303983688, 0.04800000227987766, 0.0, 0.0, 0.0, 0.0, 0.0, 0.0, 1.707340116700095E9, 0.0, 2024-02-07 13:08:36.700
9.0, 119.84135418012738, 92.29325110651553, -18.26006153365597, -23.039653677027673, -0.06400000303983688, 0.04800000227987766, 0.0, 0.0, 0.0, 0.0, 0.0, 0.0, 1.707340116700095E9, 0.0, 2024-02-07 13:08:36.700
10.0, 105.79428994655609, 97.79464394133538, -10.410011526662856, -32.85689106071368, -0.06400000303983688, 0.04800000227987766, 1.0240000486373901, 0.0, 0.0, 0.0, 0.0, 0.0, 1.707340116711311E9, 0.0, 2024-02-07 13:08:36.711
10.0, 72.35958434268832, 26.474751786328852, 27.048826429527253, 27.97632161853835, -0.06400000303983688, 0.04800000227987766, 1.0240000486373901, 0.0, 0.0, 0.0, 0.0, 0.0, 1.707340116711311E9, 0.0, 2024-02-07 13:08:36.711
11.0, 87.8539898591116, 58.03576751239598, 11.726456311065704, -6.0567679782398045, -0.06400000303983688, 0.0, 1.0240000486373901, 0.0, 0.0, 0.0, 0.0, 0.0, 1.707340116727328E9, 0.0, 2024-02-07 13:08:36.727
11.0, 119.92363197915256, 105.06126955524087, -27.99128121836111, -63.236098400782794, -0.06400000303983688, 0.0, 1.0240000486373901, 0.0, 0.0, 0.0, 0.0, 0.0, 1.707340116727328E9, 0.0, 2024-02-07 13:08:36.727
12.0, 71.33859165478498, 49.78180831018835, 21.809226591605693, 8.816814145538956, -0.03200000151991844, 0.0, 1.0240000486373901, 0.0, 0.0, 0.0, 0.0, 0.0, 1.707340116730477E9, 0.0, 2024-02-07 13:08:36.730
12.0, 93.88644848763943, 44.71424387022853, 14.841792974155396, -5.316267787013203, -0.03200000151991844, 0.0, 1.0240000486373901, 0.0, 0.0, 0.0, 0.0, 0.0, 1.707340116730477E9, 0.0, 2024-02-07 13:08:36.730
13.0, 139.45712944772094, 113.66677935328335, -25.455629048403352, -75.51792985526845, -0.03200000151991844, 0.0, 1.0240000486373901, 0.0, 0.0, 0.0, 0.0, 0.0, 1.707340116741358E9, 0.0, 2024-02-07 13:08:36.741
13.0, 108.73385131172836, 88.10830305609852, -6.714990370441228, -40.36287027178332, -0.03200000151991844, 0.0, 1.0240000486373901, 0.0, 0.0, 0.0, 0.0, 0.0, 1.707340116741358E9, 0.0, 2024-02-07 13:08:36.741
14.0, 113.48726415541023, 79.14376286230981, 12.635252000298351, -16.63694495288655, -0.03200000151991844, 0.0, 1.0240000486373901, 0.0, 0.0, 0.0, 0.0, 0.0, 1.707340116757003E9, 0.0, 2024-02-07 13:08:36.757
14.0, 149.1060713334009, 116.41186592075974, -26.618737934622914, -73.78635617578402, -0.03200000151991844, 0.0, 1.0240000486373901, 0.0, 0.0, 0.0, 0.0, 0.0, 1.707340116757003E9, 0.0, 2024-02-07 13:08:36.757
15.0, 174.02502473816276, 140.42202363628894, -44.10277022747323, -98.26774128573015, -0.03200000151991844, 0.0, 1.0240000486373901, 0.0, 0.0, 0.0, 0.0, 0.0, 1.707340116759747E9, 0.0, 2024-02-07 13:08:36.759
15.0, 135.86682549025863, 101.65422069560736, -14.28828778071329, -39.476513982284814, -0.03200000151991844, 0.0, 1.0240000486373901, 0.0, 0.0, 0.0, 0.0, 0.0, 1.707340116759747E9, 0.0, 2024-02-07 13:08:36.759
16.0, 177.84346259292215, 125.00615601893514, -35.35140433115885, -80.54061549576, -0.03200000151991844, 0.0, 1.0240000486373901, 0.0, 0.0, 0.0, 0.0, 0.0, 1.707340116771147E9, 0.0, 2024-02-07 13:08:36.771
16.0, 213.91105776559561, 183.20647912938148, -80.35736039793119, -143.7935434463434, -0.03200000151991844, 0.0, 1.0240000486373901, 0.0, 0.0, 0.0, 0.0, 0.0, 1.707340116771147E9, 0.0, 2024-02-07 13:08:36.771
17.0, 187.84769497439265, 136.40911098383367, -26.914190031122416, -78.10594062460586, -0.03200000151991844, 0.0, 1.0240000486373901, 0.0, 0.0, 0.0, 0.0, 0.0, 1.707340116786863E9, 0.0, 2024-02-07 13:08:36.786
17.0, 185.5364368017763, 146.01317407004535, -30.919622883666307, -83.44277786137536, -0.03200000151991844, 0.0, 1.0240000486373901, 0.0, 0.0, 0.0, 0.0, 0.0, 1.707340116786863E9, 0.0, 2024-02-07 13:08:36.786
18.0, 237.04981879144907, 194.34390119742602, -60.5658098324202, -143.36345495143905, -0.03200000151991844, 0.0, 1.0240000486373901, 0.0, 0.0, 0.0, 0.0, 0.0, 1.707340116790024E9, 0.0, 2024-02-07 13:08:36.790
18.0, 199.34414743818343, 160.81195819471031, -37.32233160780743, -108.1448170687072, -0.03200000151991844, 0.0, 1.0240000486373901, 0.0, 0.0, 0.0, 0.0, 0.0, 1.707340116790024E9, 0.0, 2024-02-07 13:08:36.790
19.0, 200.64189272280782, 143.65329719800502, -21.97004228970036, -80.05068860156462, -0.03200000151991844, 0.0, 1.0240000486373901, 0.0, 0.0, 0.0, 0.0, 0.0, 1.707340116801224E9, 0.0, 2024-02-07 13:08:36.801
19.0, 240.1464559547603, 182.970865432173, -78.23309722309932, -124.13662927923724, -0.03200000151991844, 0.0, 1.0240000486373901, 0.0, 0.0, 0.0, 0.0, 0.0, 1.707340116801224E9, 0.0, 2024-02-07 13:08:36.801
20.0, 253.26228509936482, 211.38288539554924, -85.54460163647309, -132.88799517555162, -0.03200000151991844, 0.0, 0.5120000243186951, 0.0, 0.0, 0.0, 0.0, 0.0, 1.707340116817146E9, 0.0, 2024-02-07 13:08:36.817
20.0, 197.721030857414, 162.853943570517, -41.30906496057287, -68.36724113998935, -0.03200000151991844, 0.0, 0.5120000243186951, 0.0, 0.0, 0.0, 0.0, 0.0, 1.707340116817146E9, 0.0, 2024-02-07 13:08:36.817
21.0, 216.86557873059064, 182.87736793328077, -58.99879175098613, -92.40357815520838, -0.03200000151991844, 0.0, 0.5120000243186951, 0.0, 0.0, 0.0, 0.0, 0.0, 1.707340116820447E9, 0.0, 2024-02-07 13:08:36.820
21.0, 268.8614078145474, 216.2522351378575, -105.33615220198408, -133.9351671631448, -0.03200000151991844, 0.0, 0.5120000243186951, 0.0, 0.0, 0.0, 0.0, 0.0, 1.707340116820447E9, 0.0, 2024-02-07 13:08:36.820
22.0, 216.28215433750302, 183.25135792884976, -80.45459779677913, -68.88708723383024, -0.06400000303983688, 0.0, 0.5120000243186951, 0.0, 0.0, 0.0, 0.0, 0.0, 1.70734011683149E9, 0.0, 2024-02-07 13:08:36.831
22.0, 225.60946482699364, 188.02721017226577, -81.50550968432799, -86.87974592065439, -0.06400000303983688, 0.0, 0.5120000243186951, 0.0, 0.0, 0.0, 0.0, 0.0, 1.70734011683149E9, 0.0, 2024-02-07 13:08:36.831
23.0, 287.00366249959916, 233.7063482310623, -130.7450325009413, -147.8326353984885, -0.06400000303983688, 0.0, 0.5120000243186951, 0.0, 0.0, 0.0, 0.0, 0.0, 1.707340116846984E9, 0.0, 2024-02-07 13:08:36.846
23.0, 250.46110003255308, 204.97269687149674, -143.99175814399496, -77.30934193404391, -0.06400000303983688, 0.0, 0.5120000243186951, 0.0, 0.0, 0.0, 0.0, 0.0, 1.707340116846984E9, 0.0, 2024-02-07 13:08:36.846
24.0, 253.42310079745948, 175.55838371999562, -179.6928431210108, -8.184771053027362, -0.06400000303983688, 0.0, 0.5120000243186951, 0.0, 0.0, 0.0, 0.0, 0.0, 1.707340116849869E9, 0.0, 2024-02-07 13:08:36.849
24.0, 280.3578602783382, 231.032319762744, -248.70521700335667, -59.597175743896514, -0.06400000303983688, 0.0, 0.5120000243186951, 0.0, 0.0, 0.0, 0.0, 0.0, 1.707340116849869E9, 0.0, 2024-02-07 13:08:36.849
25.0, 310.23966092430055, 255.62590187136084, -278.744093447458, -73.67789907706901, -0.06400000303983688, 0.0, 0.5120000243186951, 0.0, 0.0, 0.0, 0.0, 0.0, 1.707340116861077E9, 0.0, 2024-02-07 13:08:36.861
25.0, 240.99167334474623, 201.1654787166044, -230.54800271848217, -0.884486339520663, -0.06400000303983688, 0.0, 0.5120000243186951, 0.0, 0.0, 0.0, 0.0, 0.0, 1.707340116861077E9, 0.0, 2024-02-07 13:08:36.861
26.0, 253.6026159953326, 207.59810664039105, -230.77239671582356, -4.007302802521735, -0.06400000303983688, 0.0, 0.5120000243186951, 0.0, 0.0, 0.0, 0.0, 0.0, 1.707340116876878E9, 0.0, 2024-02-07 13:08:36.876
26.0, 283.97434353549033, 235.23222741298378, -233.6072408822365, -46.227033402305096, -0.06400000303983688, 0.0, 0.5120000243186951, 0.0, 0.0, 0.0, 0.0, 0.0, 1.707340116876878E9, 0.0, 2024-02-07 13:08:36.876
27.0, 200.64189272280782, 165.5242321388796, -159.63949955860153, 34.68570213904604, -0.06400000303983688, 0.0, 0.5120000243186951, 0.0, 0.0, 0.0, 0.0, 0.0, 1.7073401168799E9, 0.0, 2024-02-07 13:08:36.879
27.0, 184.62764111254364, 144.5471332874149, -126.672281449195, 34.999853735323995, -0.06400000303983688, 0.0, 0.5120000243186951, 0.0, 0.0, 0.0, 0.0, 0.0, 1.7073401168799E9, 0.0, 2024-02-07 13:08:36.879
28.0, 223.1411308562383, 190.9031932381913, -136.51943803252652, -31.271173479501158, -0.06400000303983688, 0.0, 0.5120000243186951, 0.0, 0.0, 0.0, 0.0, 0.0, 1.707340116891607E9, 0.0, 2024-02-07 13:08:36.891
28.0, 177.72752569429576, 142.17229681555182, -79.54206220759079, 14.340646380092949, -0.06400000303983688, 0.0, 0.5120000243186951, 0.0, 0.0, 0.0, 0.0, 0.0, 1.707340116891607E9, 0.0, 2024-02-07 13:08:36.891
29.0, 147.34831835422665, 93.69571358989924, -20.37310500862077, 55.2289725956507, -0.06400000303983688, 0.0, 0.5120000243186951, 0.0, 0.0, 0.0, 0.0, 0.0, 1.707340116907195E9, 0.0, 2024-02-07 13:08:36.907
29.0, 165.19512094277889, 111.77065007574856, -30.474574788939208, -1.6362062306143343, -0.06400000303983688, 0.0, 0.5120000243186951, 0.0, 0.0, 0.0, 0.0, 0.0, 1.707340116907195E9, 0.0, 2024-02-07 13:08:36.907
30.0, 155.3367446595803, 136.30065388511866, -2.260769523214549, -16.74914195155725, -0.06400000303983688, 0.0, 0.7680000364780426, 0.0, 0.0, 0.0, 0.0, 0.0, 1.707340116910356E9, 0.0, 2024-02-07 13:08:36.910
30.0, 93.94254698697478, 55.369218843989074, 75.59272785438225, 52.23705263109878, -0.06400000303983688, 0.0, 0.7680000364780426, 0.0, 0.0, 0.0, 0.0, 0.0, 1.707340116910356E9, 0.0, 2024-02-07 13:08:36.910
31.0, 83.30627151299268, 61.13240467570722, 91.3564061676152, 28.084778717253357, -0.06400000303983688, 0.0, 0.7680000364780426, 0.0, 0.0, 0.0, 0.0, 0.0, 1.70734011692121E9, 0.0, 2024-02-07 13:08:36.921
31.0, 115.85088092740625, 93.07115029729903, 77.6122738304548, -15.859045762103051, -0.06400000303983688, 0.0, 0.7680000364780426, 0.0, 0.0, 0.0, 0.0, 0.0, 1.70734011692121E9, 0.0, 2024-02-07 13:08:36.921
32.0, 46.67769134696573, 23.849342017434537, 127.68579433718696, 64.00651779165491, -0.06400000303983688, 0.0, 0.7680000364780426, 0.0, 0.0, 0.0, 0.0, 0.0, 1.707340116937065E9, 0.0, 2024-02-07 13:08:36.937
32.0, 35.48043087963015, 14.574390127323568, 122.12082320312038, 72.45495179155841, -0.06400000303983688, 0.0, 0.7680000364780426, 0.0, 0.0, 0.0, 0.0, 0.0, 1.707340116937065E9, 0.0, 2024-02-07 13:08:36.937
33.0, 75.50110030546784, 42.62737969495356, 83.87660625623539, 21.52125429501757, -0.06400000303983688, 0.0, 0.7680000364780426, 0.0, 0.0, 0.0, 0.0, 0.0, 1.707340116940003E9, 0.0, 2024-02-07 13:08:36.940
33.0, 33.187872206792235, 4.0054328525438905, 108.08123876946047, 66.1980991656892, -0.06400000303983688, 0.0, 0.7680000364780426, 0.0, 0.0, 0.0, 0.0, 0.0, 1.707340116940003E9, 0.0, 2024-02-07 13:08:36.940
34.0, -4.775852243416011, -29.634967248886824, 130.66275470191613, 100.67997675715014, -0.06400000303983688, 0.0, 0.7680000364780426, 0.0, 0.0, 0.0, 0.0, 0.0, 1.707340116951238E9, 0.0, 2024-02-07 13:08:36.951
34.0, 24.88155440520495, -8.964540193788707, 92.37365895556286, 47.487379687372595, -0.06400000303983688, 0.0, 0.7680000364780426, 0.0, 0.0, 0.0, 0.0, 0.0, 1.707340116951238E9, 0.0, 2024-02-07 13:08:36.951
35.0, 22.431919934228063, -7.337683713063598, 92.46715645445511, 40.49002687027678, -0.06400000303983688, 0.0, 0.7680000364780426, 0.0, 0.0, 0.0, 0.0, 0.0, 1.707340116967105E9, 0.0, 2024-02-07 13:08:36.967
35.0, -38.887479739263654, -67.95024229492992, 132.95157347479835, 107.26968047907576, -0.06400000303983688, 0.0, 0.7680000364780426, 0.0, 0.0, 0.0, 0.0, 0.0, 1.707340116967105E9, 0.0, 2024-02-07 13:08:36.967
36.0, -20.449772957712412, -49.93514420837164, 114.76070009032264, 75.92931885039434, -0.06400000303983688, 0.0, 0.7680000364780426, 0.0, 0.0, 0.0, 0.0, 0.0, 1.707340116970029E9, 0.0, 2024-02-07 13:08:36.970
36.0, 13.572096939198673, -11.219699867069721, 73.07951508415863, 10.817660621833056, -0.06400000303983688, 0.0, 0.7680000364780426, 0.0, 0.0, 0.0, 0.0, 0.0, 1.707340116970029E9, 0.0, 2024-02-07 13:08:36.970
37.0, -44.014882578514516, -72.9617082355544, 118.68385514384136, 81.7598228813149, -0.06400000303983688, 0.0, 0.7680000364780426, 0.0, 0.0, 0.0, 0.0, 0.0, 1.707340116981491E9, 0.0, 2024-02-07 13:08:36.981
37.0, -46.23638315219432, -60.563939882442355, 108.97507485887036, 72.79902258748189, -0.06400000303983688, 0.0, 0.7680000364780426, 0.0, 0.0, 0.0, 0.0, 0.0, 1.707340116981491E9, 0.0, 2024-02-07 13:08:36.981
38.0, -4.8095113430172205, -13.381362041458488, 74.56051546661183, 13.282254692632705, -0.06400000303983688, 0.0, 0.7680000364780426, 0.0, 0.0, 0.0, 0.0, 0.0, 1.707340116996896E9, 0.0, 2024-02-07 13:08:36.996
38.0, -37.649572853930295, -51.06459399498999, 93.58538654120639, 45.21726041426882, -0.06400000303983688, 0.0, 0.7680000364780426, 0.0, 0.0, 0.0, 0.0, 0.0, 1.707340116996896E9, 0.0, 2024-02-07 13:08:36.996
39.0, -39.8336744280532, -69.50978057645261, 111.10307793365791, 75.87322035105899, -0.06400000303983688, 0.0, 0.7680000364780426, 0.0, 0.0, 0.0, 0.0, 0.0, 1.707340116999781E9, 0.0, 2024-02-07 13:08:36.999
39.0, -11.896621759049594, -22.742331630550325, 68.13162744278088, 6.64393227128312, -0.06400000303983688, 0.0, 0.7680000364780426, 0.0, 0.0, 0.0, 0.0, 0.0, 1.707340116999781E9, 0.0, 2024-02-07 13:08:36.999
40.0, 0.8003385905176401, -21.37726814672351, 47.42380138812587, -12.612812600564212, -0.06400000303983688, 0.0, 0.8960000425577164, 0.0, 0.0, 0.0, 0.0, 0.0, 1.707340117027697E9, 0.0, 2024-02-07 13:08:37.027
40.0, -48.929111120291054, -68.56732578761876, 82.67609837045893, 54.99335889844224, -0.06400000303983688, 0.0, 0.8960000425577164, 0.0, 0.0, 0.0, 0.0, 0.0, 1.707340117027697E9, 0.0, 2024-02-07 13:08:37.027
41.0, -30.872874134220183, -42.833074192516506, 66.59826846094802, 26.222308539319783, -0.06400000303983688, 0.0, 0.8960000425577164, 0.0, 0.0, 0.0, 0.0, 0.0, 1.707340117030534E9, 0.0, 2024-02-07 13:08:37.030
41.0, 11.818083859980106, -5.344317036680877, 29.663016498554498, -32.4417621656321, -0.06400000303983688, 0.0, 0.8960000425577164, 0.0, 0.0, 0.0, 0.0, 0.0, 1.707340117030534E9, 0.0, 2024-02-07 13:08:37.030
42.0, -36.07881487254053, -58.09186601173133, 77.90024612704292, 50.681254249531776, -0.06400000303983688, 0.0, 0.8960000425577164, 0.0, 0.0, 0.0, 0.0, 0.0, 1.707340117033738E9, 0.0, 2024-02-07 13:08:37.033
42.0, -38.96227773837745, -60.519061082974076, 70.4241861156188, 37.827218101825565, -0.06400000303983688, 0.0, 0.8960000425577164, 0.0, 0.0, 0.0, 0.0, 0.0, 1.707340117033738E9, 0.0, 2024-02-07 13:08:37.033
43.0, 0.09349749889224768, -2.135482874698937, 30.283839891199023, -23.626817970070988, -0.06400000303983688, 0.0, 0.8960000425577164, 0.0, 0.0, 0.0, 0.0, 0.0, 1.70734011704138E9, 0.0, 2024-02-07 13:08:37.041
43.0, -27.40972677525133, -22.013051139190793, 56.081669785548, 22.100938788149506, -0.06400000303983688, 0.0, 0.8960000425577164, 0.0, 0.0, 0.0, 0.0, 0.0, 1.70734011704138E9, 0.0, 2024-02-07 13:08:37.041
44.0, -42.23095029965043, -53.738622463308275, 75.88070015097037, 56.07792988559231, -0.06400000303983688, 0.0, 0.8960000425577164, 0.0, 0.0, 0.0, 0.0, 0.0, 1.707340117056993E9, 0.0, 2024-02-07 13:08:37.056
44.0, -20.820023053325713, -21.579222744330764, 45.38555591227487, 11.419784514699131, -0.06400000303983688, 0.0, 0.8960000425577164, 0.0, 0.0, 0.0, 0.0, 0.0, 1.707340117056993E9, 0.0, 2024-02-07 13:08:37.056
45.0, 9.802277783863246, -12.45386685244739, 42.80128504289314, 1.0191227379254997, -0.06400000303983688, 0.0, 0.8960000425577164, 0.0, 0.0, 0.0, 0.0, 0.0, 1.707340117059901E9, 0.0, 2024-02-07 13:08:37.059
45.0, -55.81052703876048, -70.80378596112132, 83.88782595610246, 73.78635617578402, -0.06400000303983688, 0.0, 0.8960000425577164, 0.0, 0.0, 0.0, 0.0, 0.0, 1.707340117059901E9, 0.0, 2024-02-07 13:08:37.059
46.0, -62.26559436228126, -37.45509805623442, 69.76970362337306, 51.073943744879216, -0.06400000303983688, 0.0, 0.8960000425577164, 0.0, 0.0, 0.0, 0.0, 0.0, 1.707340117071162E9, 0.0, 2024-02-07 13:08:37.071
46.0, -36.16857247147709, -32.9784378092736, 33.31315885530785, 8.498922649305314, -0.06400000303983688, 0.0, 0.8960000425577164, 0.0, 0.0, 0.0, 0.0, 0.0, 1.707340117071162E9, 0.0, 2024-02-07 13:08:37.071
47.0, -111.33308178093284, -95.47964586876333, 98.71278938045725, 89.41539809061214, -0.06400000303983688, 0.0, 0.8960000425577164, 0.0, 0.0, 0.0, 0.0, 0.0, 1.707340117087267E9, 0.0, 2024-02-07 13:08:37.087
47.0, -125.86259310878813, -107.29024992883205, 99.33361277310178, 92.77756815077737, -0.06400000303983688, 0.0, 0.8960000425577164, 0.0, 0.0, 0.0, 0.0, 0.0, 1.707340117087267E9, 0.0, 2024-02-07 13:08:37.087
48.0, -96.39592135790735, -82.47601372282952, 69.32091562869027, 41.68679485609755, -0.06400000303983688, 0.0, 0.8960000425577164, 0.0, 0.0, 0.0, 0.0, 0.0, 1.707340117090461E9, 0.0, 2024-02-07 13:08:37.090
48.0, -126.34504020307213, -136.66342418082058, 99.9918351653032, 87.85585980908945, -0.06400000303983688, 0.0, 0.8960000425577164, 0.0, 0.0, 0.0, 0.0, 0.0, 1.707340117090461E9, 0.0, 2024-02-07 13:08:37.090
49.0, -165.7112271366641, -142.34059231355786, 119.3345977361314, 113.91548270033672, -0.06400000303983688, 0.0, 0.8960000425577164, 0.0, 0.0, 0.0, 0.0, 0.0, 1.707340117101331E9, 0.0, 2024-02-07 13:08:37.101
49.0, -120.38737957365811, -112.78416296374053, 82.41056547360495, 64.29075018828735, -0.06400000303983688, 0.0, 0.8960000425577164, 0.0, 0.0, 0.0, 0.0, 0.0, 1.707340117101331E9, 0.0, 2024-02-07 13:08:37.101
50.0, -128.2785684801638, -95.95461316313595, 76.74461704073474, 53.77415151288733, -0.06400000303983688, 0.0, 0.9600000455975533, 0.0, 0.0, 0.0, 0.0, 0.0, 1.707340117117011E9, 0.0, 2024-02-07 13:08:37.117
50.0, -182.84370883367956, -161.21212748996913, 116.75032686674967, 121.56357810972258, -0.06400000303983688, 0.0, 0.9600000455975533, 0.0, 0.0, 0.0, 0.0, 0.0, 1.707340117117011E9, 0.0, 2024-02-07 13:08:37.117
51.0, -168.44509400427341, -133.3274334203452, 94.434343831148, 91.71169666340575, -0.06400000303983688, 0.01600000075995922, 0.9600000455975533, 0.0, 0.0, 0.0, 0.0, 0.0, 1.707340117119884E9, 0.0, 2024-02-07 13:08:37.119
51.0, -129.6959905633703, -102.34984208736569, 47.865109582897276, 37.015659811440855, -0.06400000303983688, 0.01600000075995922, 0.9600000455975533, 0.0, 0.0, 0.0, 0.0, 0.0, 1.707340117119884E9, 0.0, 2024-02-07 13:08:37.119
52.0, -181.05603665485978, -143.23816830292344, 93.24131574528292, 109.4388224533759, -0.06400000303983688, 0.01600000075995922, 0.9600000455975533, 0.0, 0.0, 0.0, 0.0, 0.0, 1.707340117131214E9, 0.0, 2024-02-07 13:08:37.131
52.0, -168.84900319948792, -142.05262001696974, 75.13646005978808, 101.68974974518642, -0.06400000303983688, 0.01600000075995922, 0.9600000455975533, 0.0, 0.0, 0.0, 0.0, 0.0, 1.707340117131214E9, 0.0, 2024-02-07 13:08:37.131
53.0, -109.15646000672132, -92.11373590864241, 37.12411691015586, 36.222801020834595, -0.06400000303983688, 0.01600000075995922, 0.9600000455975533, 0.0, 0.0, 0.0, 0.0, 0.0, 1.707340117147245E9, 0.0, 2024-02-07 13:08:37.147
53.0, -138.7727277558297, -109.99419759679586, 63.40813379874453, 74.0182299730368, -0.06400000303983688, 0.01600000075995922, 0.9600000455975533, 0.0, 0.0, 0.0, 0.0, 0.0, 1.707340117147245E9, 0.0, 2024-02-07 13:08:37.147
54.0, -170.43846068065614, -135.64617139287293, 87.56414761254564, 100.32094636140391, -0.06400000303983688, 0.01600000075995922, 0.9600000455975533, 0.0, 0.0, 0.0, 0.0, 0.0, 1.707340117150625E9, 0.0, 2024-02-07 13:08:37.150
54.0, -130.6945438515395, -94.64938807860017, 48.721546672750264, 48.4859329755418, -0.06400000303983688, 0.01600000075995922, 0.9600000455975533, 0.0, 0.0, 0.0, 0.0, 0.0, 1.707340117150625E9, 0.0, 2024-02-07 13:08:37.150
55.0, -122.19375125225633, -84.30482480116189, 36.45467481808737, 46.05499800434336, -0.06400000303983688, 0.01600000075995922, 0.9600000455975533, 0.0, 0.0, 0.0, 0.0, 0.0, 1.707340117161578E9, 0.0, 2024-02-07 13:08:37.161
55.0, -183.91332022100687, -166.76587892416865, 74.50815686723217, 109.9960675467737, -0.06400000303983688, 0.01600000075995922, 0.9600000455975533, 0.0, 0.0, 0.0, 0.0, 0.0, 1.707340117161578E9, 0.0, 2024-02-07 13:08:37.161
56.0, -183.25509782880545, -136.6596842808649, 68.29244314087555, 89.38547889096662, -0.06400000303983688, 0.01600000075995922, 0.9600000455975533, 0.0, 0.0, 0.0, 0.0, 0.0, 1.707340117177075E9, 0.0, 2024-02-07 13:08:37.177
56.0, -154.1137973740697, -103.48303177393973, 28.208195415791124, 28.43632931308821, -0.06400000303983688, 0.01600000075995922, 0.9600000455975533, 0.0, 0.0, 0.0, 0.0, 0.0, 1.707340117177075E9, 0.0, 2024-02-07 13:08:37.177
57.0, -203.03542869444937, -158.1491494262591, 79.52710260776803, 101.67479014536366, -0.06400000303983688, 0.01600000075995922, 0.9600000455975533, 0.0, 0.0, 0.0, 0.0, 0.0, 1.707340117180005E9, 0.0, 2024-02-07 13:08:37.180
57.0, -208.2077103331685, -164.7126738484949, 76.56884174281731, 108.5898651634343, -0.06400000303983688, 0.01600000075995922, 0.9600000455975533, 0.0, 0.0, 0.0, 0.0, 0.0, 1.707340117180005E9, 0.0, 2024-02-07 13:08:37.180
58.0, -145.71398207359016, -99.84410911705345, 39.63732968037948, 46.81419769534841, -0.06400000303983688, 0.01600000075995922, 0.9600000455975533, 0.0, 0.0, 0.0, 0.0, 0.0, 1.707340117191449E9, 0.0, 2024-02-07 13:08:37.191
58.0, -162.1471024788916, -101.64674089569598, 49.933274258393794, 80.70143119385466, -0.06400000303983688, 0.01600000075995922, 0.9600000455975533, 0.0, 0.0, 0.0, 0.0, 0.0, 1.707340117191449E9, 0.0, 2024-02-07 13:08:37.191
59.0, -172.99655225034803, -113.12449385970831, 69.89686022186652, 106.54413988767192, -0.06400000303983688, 0.01600000075995922, 0.9600000455975533, 0.0, 0.0, 0.0, 0.0, 0.0, 1.707340117207165E9, 0.0, 2024-02-07 13:08:37.207
59.0, -131.21812984533608, -81.69063473213464, 21.4726355955936, 43.12665633903816, -0.06400000303983688, 0.01600000075995922, 0.9600000455975533, 0.0, 0.0, 0.0, 0.0, 0.0, 1.707340117207165E9, 0.0, 2024-02-07 13:08:37.207
60.0, -126.60309330001473, -72.5540591403842, 4.512189296539873, 21.214582498650998, -0.06400000303983688, 0.01600000075995922, 0.9920000471174717, 0.0, 0.0, 0.0, 0.0, 0.0, 1.707340117210432E9, 0.0, 2024-02-07 13:08:37.210
60.0, -175.09463612549007, -122.63505944702774, 51.062724045012146, 79.25408991100267, -0.06400000303983688, 0.01600000075995922, 0.9920000471174717, 0.0, 0.0, 0.0, 0.0, 0.0, 1.707340117210432E9, 0.0, 2024-02-07 13:08:37.210
61.0, -142.08253921661526, -88.08212375640869, 27.91274331929162, 35.31774523155764, -0.06400000303983688, 0.01600000075995922, 0.9920000471174717, 0.0, 0.0, 0.0, 0.0, 0.0, 1.707340117221267E9, 0.0, 2024-02-07 13:08:37.221
61.0, -82.79764511901885, -34.855867587029934, -22.501108083408326, -37.63274330412969, -0.06400000303983688, 0.01600000075995922, 0.9920000471174717, 0.0, 0.0, 0.0, 0.0, 0.0, 1.707340117221267E9, 0.0, 2024-02-07 13:08:37.221
62.0, -117.42163890879601, -74.70824151486158, 30.272620191331953, 23.51836087135598, -0.06400000303983688, 0.01600000075995922, 0.9920000471174717, 0.0, 0.0, 0.0, 0.0, 0.0, 1.707340117237041E9, 0.0, 2024-02-07 13:08:37.237
62.0, -86.03265858069062, -25.70059249550104, 20.27960750972852, 5.727656782139093, -0.06400000303983688, 0.01600000075995922, 0.9920000471174717, 0.0, 0.0, 0.0, 0.0, 0.0, 1.707340117237041E9, 0.0, 2024-02-07 13:08:37.237
63.0, -0.4226086949929595, 33.172912606969476, -19.367071920540184, -58.355528958607465, -0.06400000303983688, 0.01600000075995922, 0.9920000471174717, 0.0, 0.0, 0.0, 0.0, 0.0, 1.707340117240204E9, 0.0, 2024-02-07 13:08:37.240
63.0, -20.15432086121291, 22.061669838614762, 2.5562216197140515, -19.87569831451401, -0.06400000303983688, 0.01600000075995922, 0.9920000471174717, 0.0, 0.0, 0.0, 0.0, 0.0, 1.707340117240204E9, 0.0, 2024-02-07 13:08:37.240
64.0, -27.922093069180846, 0.13463639840483665, 8.050134654622525, 8.008995755109936, -0.06400000303983688, 0.01600000075995922, 0.9920000471174717, 0.0, 0.0, 0.0, 0.0, 0.0, 1.707340117251563E9, 0.0, 2024-02-07 13:08:37.251
64.0, -2.5880107693374157, 49.38537891488522, -41.503539758268744, -32.30712576722726, -0.06400000303983688, 0.01600000075995922, 0.9920000471174717, 0.0, 0.0, 0.0, 0.0, 0.0, 1.707340117251563E9, 0.0, 2024-02-07 13:08:37.251
65.0, 25.648233896121383, 76.67168899159878, -43.859676730353385, -23.237868374679238, -0.06400000303983688, 0.01600000075995922, 0.9920000471174717, 0.0, 0.0, 0.0, 0.0, 0.0, 1.707340117267161E9, 0.0, 2024-02-07 13:08:37.267
65.0, -35.03538278490305, 6.331650624983013, -4.112020001281053, 62.03933041496202, -0.06400000303983688, 0.01600000075995922, 0.9920000471174717, 0.0, 0.0, 0.0, 0.0, 0.0, 1.707340117267161E9, 0.0, 2024-02-07 13:08:37.267
66.0, -26.269057288765907, 7.341423613019288, -23.98958826577291, 50.45686025219038, -0.06400000303983688, 0.01600000075995922, 0.9920000471174717, 0.0, 0.0, 0.0, 0.0, 0.0, 1.707340117270357E9, 0.0, 2024-02-07 13:08:37.270
66.0, 15.572943415492773, 62.09355896431953, -127.92514793435112, 15.234482469502836, -0.06400000303983688, 0.01600000075995922, 0.9920000471174717, 0.0, 0.0, 0.0, 0.0, 0.0, 1.707340117270357E9, 0.0, 2024-02-07 13:08:37.270
67.0, -13.422500940971076, 16.739792201668024, -150.82081546308473, 109.89135034801438, -0.06400000303983688, 0.01600000075995922, 0.9920000471174717, 0.0, 0.0, 0.0, 0.0, 0.0, 1.707340117281356E9, 0.0, 2024-02-07 13:08:37.281
67.0, -30.270750241354108, 18.695759878493845, -187.86452452419326, 114.46898789377883, -0.06400000303983688, 0.01600000075995922, 0.9920000471174717, 0.0, 0.0, 0.0, 0.0, 0.0, 1.707340117281356E9, 0.0, 2024-02-07 13:08:37.281
68.0, -4.379422848112881, 45.00595606677234, -204.27520552976057, 60.70418613078073, -0.06400000303983688, 0.01600000075995922, 0.9920000471174717, 0.0, 0.0, 0.0, 0.0, 0.0, 1.707340117298006E9, 0.0, 2024-02-07 13:08:37.298
68.0, -68.2157751917839, -28.404540163464844, -133.40036146948114, 95.91160431364551, -0.06400000303983688, 0.01600000075995922, 0.9920000471174717, 0.0, 0.0, 0.0, 0.0, 0.0, 1.707340117298006E9, 0.0, 2024-02-07 13:08:37.298
69.0, -141.9591225180775, -97.4543130453676, -33.1448633573018, 119.56647153338417, -0.06400000303983688, 0.01600000075995922, 0.9920000471174717, 0.0, 0.0, 0.0, 0.0, 0.0, 1.707340117300735E9, 0.0, 2024-02-07 13:08:37.300
69.0, -144.80144648440182, -99.88898791652173, 17.429803743492812, 52.83169672405347, -0.06400000303983688, 0.01600000075995922, 0.9920000471174717, 0.0, 0.0, 0.0, 0.0, 0.0, 1.707340117300735E9, 0.0, 2024-02-07 13:08:37.300
70.0, -158.76623291894794, -115.15525953564793, 98.12562508741394, 26.233528239186853, -0.06400000303983688, 0.01600000075995922, 1.008000047877431, 0.0, 0.0, 0.0, 0.0, 0.0, 1.707340117311418E9, 0.0, 2024-02-07 13:08:37.311
70.0, -230.60223126783967, -184.61642141267657, 232.44039209606126, 73.96961127361283, -0.06400000303983688, 0.01600000075995922, 1.008000047877431, 0.0, 0.0, 0.0, 0.0, 0.0, 1.707340117311418E9, 0.0, 2024-02-07 13:08:37.311
71.0, -226.67159641440958, -180.27813746407628, 311.84594795526937, 25.313512850087136, -0.06400000303983688, 0.01600000075995922, 1.008000047877431, 0.0, 0.0, 0.0, 0.0, 0.0, 1.707340117327407E9, 0.0, 2024-02-07 13:08:37.327
71.0, -197.44427826069295, -153.12646378576756, 342.0344203975983, -44.46554052317515, -0.06400000303983688, 0.01600000075995922, 1.008000047877431, 0.0, 0.0, 0.0, 0.0, 0.0, 1.707340117327407E9, 0.0, 2024-02-07 13:08:37.327
72.0, -140.83715253137052, -96.61283555533737, 540.2622076990083, 68.29618304083124, -0.06400000303983688, 0.01600000075995922, 1.008000047877431, 0.0, 0.0, 0.0, 0.0, 0.0, 1.70734011734186E9, 0.0, 2024-02-07 13:08:37.341
72.0, -130.78804135043174, -77.32243158388883, 517.7667094655335, 63.51659089745954, -0.06400000303983688, 0.01600000075995922, 1.008000047877431, 0.0, 0.0, 0.0, 0.0, 0.0, 1.70734011734186E9, 0.0, 2024-02-07 13:08:37.341
73.0, -75.75915340241045, -28.423239663243294, 477.6675021406263, 3.7941285050474107, -0.06400000303983688, 0.01600000075995922, 1.008000047877431, 0.0, 0.0, 0.0, 0.0, 0.0, 1.707340117344858E9, 0.0, 2024-02-07 13:08:37.344
73.0, -99.33922262303531, -55.290680944919586, 503.30077643692493, 46.301831401418895, -0.06400000303983688, 0.01600000075995922, 1.008000047877431, 0.0, 0.0, 0.0, 0.0, 0.0, 1.707340117344858E9, 0.0, 2024-02-07 13:08:37.344
74.0, -113.64060005359352, -70.2914196671918, 542.1433773767203, 77.21210453519598, -0.06400000303983688, 0.01600000075995922, 1.008000047877431, 0.0, 0.0, 0.0, 0.0, 0.0, 1.707340117356889E9, 0.0, 2024-02-07 13:08:37.356
74.0, -71.60412455163896, -33.82739509921521, 506.1991989025846, 18.824786426965147, -0.06400000303983688, 0.01600000075995922, 1.008000047877431, 0.0, 0.0, 0.0, 0.0, 0.0, 1.707340117356889E9, 0.0, 2024-02-07 13:08:37.356
75.0, -58.08812611177564, -7.891188906505704, 489.4893259005621, 10.021061931271106, -0.06400000303983688, 0.01600000075995922, 1.008000047877431, 0.0, 0.0, 0.0, 0.0, 0.0, 1.707340117359857E9, 0.0, 2024-02-07 13:08:37.359
75.0, -99.27564432378858, -44.77782216947526, 531.3350665047765, 77.06624843692407, -0.06400000303983688, 0.01600000075995922, 1.008000047877431, 0.0, 0.0, 0.0, 0.0, 0.0, 1.707340117359857E9, 0.0, 2024-02-07 13:08:37.359
76.0, -71.5143669527024, -17.091342797502875, 512.4336121287197, 45.25091951387003, -0.06400000303983688, 0.01600000075995922, 1.008000047877431, 0.0, 0.0, 0.0, 0.0, 0.0, 1.707340117371316E9, 0.0, 2024-02-07 13:08:37.371
76.0, -27.73883797135204, 34.95310498587787, 465.42680958565325, -11.707756811287254, -0.06400000303983688, 0.01600000075995922, 1.008000047877431, 0.0, 0.0, 0.0, 0.0, 0.0, 1.707340117371316E9, 0.0, 2024-02-07 13:08:37.371
77.0, -67.93154279515147, -7.461100411601365, 519.6366594433784, 59.204486248549074, -0.06400000303983688, 0.01600000075995922, 1.008000047877431, 0.0, 0.0, 0.0, 0.0, 0.0, 1.707340117387215E9, 0.0, 2024-02-07 13:08:37.387
77.0, -54.87181214988232, 14.174220832064748, 521.7347433185205, 64.43660628655925, -0.06400000303983688, 0.01600000075995922, 1.008000047877431, 0.0, 0.0, 0.0, 0.0, 0.0, 1.707340117387215E9, 0.0, 2024-02-07 13:08:37.387
78.0, -12.06491725705564, 62.538607059046626, 488.77500500902534, 10.118299330119044, -0.06400000303983688, 0.01600000075995922, 1.008000047877431, 0.0, 0.0, 0.0, 0.0, 0.0, 1.707340117390522E9, 0.0, 2024-02-07 13:08:37.390
78.0, -44.62448627129197, 28.733651359565556, 523.645832195878, 65.83158897003159, -0.06400000303983688, 0.01600000075995922, 1.008000047877431, 0.0, 0.0, 0.0, 0.0, 0.0, 1.707340117390522E9, 0.0, 2024-02-07 13:08:37.390
79.0, -78.31350507214665, -5.778145431540906, 549.64935658779, 112.26618681987748, -0.06400000303983688, 0.01600000075995922, 1.008000047877431, 0.0, 0.0, 0.0, 0.0, 0.0, 1.707340117401307E9, 0.0, 2024-02-07 13:08:37.401
79.0, -67.42665630113333, 8.42973450012505, 520.2275636363775, 71.93510569771752, -0.06400000303983688, 0.01600000075995922, 1.008000047877431, 0.0, 0.0, 0.0, 0.0, 0.0, 1.707340117401307E9, 0.0, 2024-02-07 13:08:37.401
80.0, -78.2948055723682, 6.83653711900115, 525.3699260754511, 82.65739887068048, -0.06400000303983688, 0.01600000075995922, 1.008000047877431, 0.0, 0.0, 0.0, 0.0, 0.0, 1.707340117416856E9, 0.0, 2024-02-07 13:08:37.416
80.0, -149.9999074228108, -66.80209300853312, 570.6862938385457, 166.8425468732603, -0.06400000303983688, 0.01600000075995922, 1.008000047877431, 0.0, 0.0, 0.0, 0.0, 0.0, 1.707340117416856E9, 0.0, 2024-02-07 13:08:37.416
81.0, -159.09534411504865, -62.613405058160424, 564.4032619129866, 157.26840298669413, -0.06400000303983688, 0.01600000075995922, 1.008000047877431, 0.0, 0.0, 0.0, 0.0, 0.0, 1.70734011742008E9, 0.0, 2024-02-07 13:08:37.420
81.0, -147.50165425240993, -52.36607917957008, 527.3034543525428, 106.3309655901976, -0.06400000303983688, 0.01600000075995922, 1.008000047877431, 0.0, 0.0, 0.0, 0.0, 0.0, 1.70734011742008E9, 0.0, 2024-02-07 13:08:37.420
82.0, -229.20350868441164, -127.20147729292512, 574.5122114932165, 193.36217745905742, -0.06400000303983688, 0.01600000075995922, 1.008000047877431, 0.0, 0.0, 0.0, 0.0, 0.0, 1.707340117431119E9, 0.0, 2024-02-07 13:08:37.431
82.0, -240.49800655059516, -138.94850305374712, 579.1235081385821, 196.2568600247614, -0.06400000303983688, 0.01600000075995922, 1.008000047877431, 0.0, 0.0, 0.0, 0.0, 0.0, 1.707340117431119E9, 0.0, 2024-02-07 13:08:37.431
83.0, -202.8746129963547, -92.12495560850948, 545.101638241671, 132.51774507993832, -0.06400000303983688, 0.01600000075995922, 1.008000047877431, 0.0, 0.0, 0.0, 0.0, 0.0, 1.70734011744705E9, 0.0, 2024-02-07 13:08:37.447
83.0, -239.0731046674773, -123.97394363116473, 573.0162515109405, 170.07382043497637, -0.06400000303983688, 0.01600000075995922, 1.008000047877431, 0.0, 0.0, 0.0, 0.0, 0.0, 1.70734011744705E9, 0.0, 2024-02-07 13:08:37.447
84.0, -257.6417079474777, -146.55919946357608, 598.0174827147275, 198.02957260375842, -0.06400000303983688, 0.01600000075995922, 1.008000047877431, 0.0, 0.0, 0.0, 0.0, 0.0, 1.707340117450748E9, 0.0, 2024-02-07 13:08:37.450
84.0, -229.259607183747, -97.91058083996177, 566.920214583166, 138.10141571378335, -0.06400000303983688, 0.01600000075995922, 1.008000047877431, 0.0, 0.0, 0.0, 0.0, 0.0, 1.707340117450748E9, 0.0, 2024-02-07 13:08:37.450
85.0, -202.762415997684, -74.71572131477296, 548.4226694023237, 116.24170047277585, -0.06400000303983688, 0.01600000075995922, 1.008000047877431, 0.0, 0.0, 0.0, 0.0, 0.0, 1.707340117461502E9, 0.0, 2024-02-07 13:08:37.461
85.0, -238.54577877372503, -116.68113871756941, 583.020483892411, 179.2515349262394, -0.06400000303983688, 0.01600000075995922, 1.008000047877431, 0.0, 0.0, 0.0, 0.0, 0.0, 1.707340117461502E9, 0.0, 2024-02-07 13:08:37.461
86.0, -199.77423593308777, -73.80318572558463, 569.7587986495346, 138.9316735039465, -0.06400000303983688, 0.01600000075995922, 1.008000047877431, 0.0, 0.0, 0.0, 0.0, 0.0, 1.707340117477123E9, 0.0, 2024-02-07 13:08:37.477
86.0, -149.8091725250706, -28.797229658812284, 535.9052242506295, 77.87780672730878, -0.06400000303983688, 0.01600000075995922, 1.008000047877431, 0.0, 0.0, 0.0, 0.0, 0.0, 1.707340117477123E9, 0.0, 2024-02-07 13:08:37.477
87.0, -195.3910731850192, -78.62391676846892, 582.9157666936517, 146.6022083130665, -0.06400000303983688, 0.01600000075995922, 1.008000047877431, 0.0, 0.0, 0.0, 0.0, 0.0, 1.707340117479772E9, 0.0, 2024-02-07 13:08:37.479
87.0, -186.2357980934903, -68.63090408686548, 576.9356666645035, 136.40350113390014, -0.06400000303983688, 0.01600000075995922, 1.008000047877431, 0.0, 0.0, 0.0, 0.0, 0.0, 1.707340117479772E9, 0.0, 2024-02-07 13:08:37.479
88.0, -140.1826700391248, -22.91436702851206, 532.8871249863878, 67.28641005279496, -0.06400000303983688, 0.01600000075995922, 1.008000047877431, 0.0, 0.0, 0.0, 0.0, 0.0, 1.707340117492358E9, 0.0, 2024-02-07 13:08:37.492
88.0, -169.92235448677093, -54.176190758123994, 557.9594142893329, 107.34821837814525, -0.06400000303983688, 0.01600000075995922, 1.008000047877431, 0.0, 0.0, 0.0, 0.0, 0.0, 1.707340117492358E9, 0.0, 2024-02-07 13:08:37.492
89.0, -192.29817592166364, -73.28707953169942, 584.8193757710978, 142.24148496473208, -0.06400000303983688, 0.01600000075995922, 1.008000047877431, 0.0, 0.0, 0.0, 0.0, 0.0, 1.707340117507213E9, 0.0, 2024-02-07 13:08:37.507
89.0, -162.42011517565697, -39.07073483709246, 555.5920576173812, 95.11874552303925, -0.06400000303983688, 0.01600000075995922, 1.008000047877431, 0.0, 0.0, 0.0, 0.0, 0.0, 1.707340117507213E9, 0.0, 2024-02-07 13:08:37.507
90.0, -156.45123484637588, -31.108487831428647, 540.1275713006034, 83.15854546474293, -0.06400000303983688, 0.01600000075995922, 1.008000047877431, 0.0, 0.0, 0.0, 0.0, 0.0, 1.707340117510534E9, 0.0, 2024-02-07 13:08:37.510
90.0, -206.64817205164582, -81.6681953324005, 578.7308186432347, 151.33692165696993, -0.06400000303983688, 0.01600000075995922, 1.008000047877431, 0.0, 0.0, 0.0, 0.0, 0.0, 1.707340117510534E9, 0.0, 2024-02-07 13:08:37.510
91.0, -181.71051914710552, -57.781454315409064, 564.0292719174176, 120.46778742270544, -0.06400000303983688, 0.01600000075995922, 1.008000047877431, 0.0, 0.0, 0.0, 0.0, 0.0, 1.707340117521595E9, 0.0, 2024-02-07 13:08:37.521
91.0, -141.22984202671796, -21.938253140076995, 516.7157975779846, 54.787664400879294, -0.06400000303983688, 0.01600000075995922, 1.008000047877431, 0.0, 0.0, 0.0, 0.0, 0.0, 1.707340117521595E9, 0.0, 2024-02-07 13:08:37.521
92.0, -184.06665611919016, -73.50399372912943, 569.9682330470532, 122.25545960152522, -0.06400000303983688, 0.01600000075995922, 1.008000047877431, 0.0, 0.0, 0.0, 0.0, 0.0, 1.707340117536872E9, 0.0, 2024-02-07 13:08:37.536
92.0, -183.55428982526064, -68.4401691891253, 567.2642853790894, 112.88327031256631, -0.06400000303983688, 0.01600000075995922, 1.008000047877431, 0.0, 0.0, 0.0, 0.0, 0.0, 1.707340117536872E9, 0.0, 2024-02-07 13:08:37.536
93.0, -143.18580970354378, -26.725325083360076, 527.2211765535176, 48.95342047000304, -0.06400000303983688, 0.01600000075995922, 1.008000047877431, 0.0, 0.0, 0.0, 0.0, 0.0, 1.707340117539957E9, 0.0, 2024-02-07 13:08:37.539
93.0, -163.31021136511117, -50.148318505845964, 541.496374684386, 82.94163126731291, -0.06400000303983688, 0.01600000075995922, 1.008000047877431, 0.0, 0.0, 0.0, 0.0, 0.0, 1.707340117539957E9, 0.0, 2024-02-07 13:08:37.539
94.0, -188.86120786238462, -63.29406685009599, 565.2559591028839, 110.76274703769013, -0.06400000303983688, 0.01600000075995922, 1.008000047877431, 0.0, 0.0, 0.0, 0.0, 0.0, 1.707340117552128E9, 0.0, 2024-02-07 13:08:37.552
94.0, -162.58841067366302, -30.899053433910012, 526.5442546615377, 50.52791835134849, -0.06400000303983688, 0.01600000075995922, 1.008000047877431, 0.0, 0.0, 0.0, 0.0, 0.0, 1.707340117552128E9, 0.0, 2024-02-07 13:08:37.552
95.0, -138.13320486340672, -13.942347034811974, 518.8363208528608, 35.62067712796852, -0.06400000303983688, 0.01600000075995922, 1.008000047877431, 0.0, 0.0, 0.0, 0.0, 0.0, 1.707340117567586E9, 0.0, 2024-02-07 13:08:37.567
95.0, -189.56804895401, -65.52304722368717, 562.0246855411679, 93.83595983823761, -0.06400000303983688, 0.01600000075995922, 1.008000047877431, 0.0, 0.0, 0.0, 0.0, 0.0, 1.707340117567586E9, 0.0, 2024-02-07 13:08:37.567
96.0, -170.73765267711133, -50.488649401813745, 546.6275174235925, 71.81916879909113, -0.06400000303983688, 0.01600000075995922, 1.008000047877431, 0.0, 0.0, 0.0, 0.0, 0.0, 1.707340117582078E9, 0.0, 2024-02-07 13:08:37.582
96.0, -124.07118103001267, -10.651235073804855, 503.6149280332029, 9.766748734284192, -0.06400000303983688, 0.01600000075995922, 1.008000047877431, 0.0, 0.0, 0.0, 0.0, 0.0, 1.707340117582078E9, 0.0, 2024-02-07 13:08:37.582
97.0, -177.22263920027763, -63.28658705018461, 552.7871326506138, 76.03029614919797, -0.06400000303983688, 0.01600000075995922, 1.008000047877431, 0.0, 0.0, 0.0, 0.0, 0.0, 1.707340117584989E9, 0.0, 2024-02-07 13:08:37.584
97.0, -180.18090006522834, -64.98076173011214, 550.0383061831817, 73.05707568442449, -0.06400000303983688, 0.01600000075995922, 1.008000047877431, 0.0, 0.0, 0.0, 0.0, 0.0, 1.707340117584989E9, 0.0, 2024-02-07 13:08:37.584
98.0, -134.8046939028427, -18.276891083456576, 505.9860246051103, 12.493135801982135, -0.06400000303983688, 0.01600000075995922, 1.008000047877431, 0.0, 0.0, 0.0, 0.0, 0.0, 1.707340117596765E9, 0.0, 2024-02-07 13:08:37.596
98.0, -162.12840297911316, -47.46307033766061, 536.9823154378682, 52.91771442303434, -0.06400000303983688, 0.01600000075995922, 1.008000047877431, 0.0, 0.0, 0.0, 0.0, 0.0, 1.707340117596765E9, 0.0, 2024-02-07 13:08:37.596
99.0, -183.35981502756476, -72.54657934047282, 553.0227463478222, 83.91400525579229, -0.06400000303983688, 0.01600000075995922, 1.008000047877431, 0.0, 0.0, 0.0, 0.0, 0.0, 1.707340117599864E9, 0.0, 2024-02-07 13:08:37.599
99.0, -130.8366600498557, -28.303562864661217, 526.6788910599425, 34.210734844673425, -0.06400000303983688, 0.01600000075995922, 1.008000047877431, 0.0, 0.0, 0.0, 0.0, 0.0, 1.707340117599864E9, 0.0, 2024-02-07 13:08:37.599
100.0, -112.28675626963377, -6.671981520950794, 509.11258096806705, 18.925763725768775, -0.06400000303983688, 0.01600000075995922, 1.008000047877431, 0.0, 0.0, 0.0, 0.0, 0.0, 1.707340117611764E9, 0.0, 2024-02-07 13:08:37.611
100.0, -157.0383991394192, -61.19598297495395, 548.0411996068433, 87.66886481130496, -0.06400000303983688, 0.01600000075995922, 1.008000047877431, 0.0, 0.0, 0.0, 0.0, 0.0, 1.707340117611764E9, 0.0, 2024-02-07 13:08:37.611
0.0, -135.6368216429837, -38.79211229039356, 45.97085025534034, 58.0451172622852, -0.06400000303983688, 0.01600000075995922, 1.008000047877431, 0.0, 0.0, 0.0, 0.0, 0.0, 1.707340117614863E9, 0.0, 2024-02-07 13:08:37.614
1.0, -79.12319341255352, -11.221569817047566, 4.379422848112881, 0.6563524422235787, -0.06400000303983688, 0.01600000075995922, 1.008000047877431, 0.0, 0.0, 0.0, 0.0, 0.0, 1.707340117626267E9, 0.0, 2024-02-07 13:08:37.626
1.0, -137.85458231670782, -32.179969168733805, 43.02380909025669, 64.05887639103457, -0.06400000303983688, 0.01600000075995922, 1.008000047877431, 0.0, 0.0, 0.0, 0.0, 0.0, 1.707340117626267E9, 0.0, 2024-02-07 13:08:37.626
2.0, -118.53425914561376, -25.56782604707405, 42.65355899464339, 61.2689110240899, -0.06400000303983688, 0.01600000075995922, 1.008000047877431, 0.0, 0.0, 0.0, 0.0, 0.0, 1.707340117642122E9, 0.0, 2024-02-07 13:08:37.642
2.0, -56.42200068151578, 10.544647925067693, -3.7286802558228374, -7.298414763528854, -0.06400000303983688, 0.01600000075995922, 1.008000047877431, 0.0, 0.0, 0.0, 0.0, 0.0, 1.707340117642122E9, 0.0, 2024-02-07 13:08:37.642
3.0, -72.77658318774775, -1.692304729949683, 20.91726045217365, 28.556006111670285, -0.06400000303983688, 0.01600000075995922, 1.008000047877431, 0.0, 0.0, 0.0, 0.0, 0.0, 1.7073401176453E9, 0.0, 2024-02-07 13:08:37.645
3.0, -112.26618681987748, -6.711250470485538, 34.006910297088325, 57.70852626627311, -0.06400000303983688, 0.01600000075995922, 1.008000047877431, 0.0, 0.0, 0.0, 0.0, 0.0, 1.7073401176453E9, 0.0, 2024-02-07 13:08:37.645
4.0, -61.171673625241965, 12.990542496088892, 2.5655713696032763, 3.378999609965831, -0.06400000303983688, 0.01600000075995922, 1.008000047877431, 0.0, 0.0, 0.0, 0.0, 0.0, 1.707340117656335E9, 0.0, 2024-02-07 13:08:37.656
4.0, -47.40884178830311, 34.199515144806355, -8.541931498795748, -12.882085397373885, -0.06400000303983688, 0.01600000075995922, 1.008000047877431, 0.0, 0.0, 0.0, 0.0, 0.0, 1.707340117656335E9, 0.0, 2024-02-07 13:08:37.656
5.0, -84.75922264577821, 0.14024624833837152, 36.96517116203904, 46.75435929605737, -0.06400000303983688, 0.01600000075995922, 1.008000047877431, 0.0, 0.0, 0.0, 0.0, 0.0, 1.707340117672043E9, 0.0, 2024-02-07 13:08:37.672
5.0, -60.63686793157831, 25.347171949688345, 12.023778357543051, 18.428357031662017, -0.06400000303983688, 0.01600000075995922, 1.008000047877431, 0.0, 0.0, 0.0, 0.0, 0.0, 1.707340117672043E9, 0.0, 2024-02-07 13:08:37.672
6.0, -5.368626386392862, 73.16927268309519, -26.21295878943056, -47.38266248861328, -0.06400000303983688, 0.01600000075995922, 1.008000047877431, 0.0, 0.0, 0.0, 0.0, 0.0, 1.707340117674851E9, 0.0, 2024-02-07 13:08:37.674
6.0, -46.41402840008959, 17.384924944024533, 22.435659834183753, 17.684116940479726, -0.06400000303983688, 0.01600000075995922, 1.008000047877431, 0.0, 0.0, 0.0, 0.0, 0.0, 1.707340117674851E9, 0.0, 2024-02-07 13:08:37.674
7.0, -34.74554053833708, 36.664109215606004, 16.627595202997327, 10.67554442351684, -0.06400000303983688, 0.01600000075995922, 1.008000047877431, 0.0, 0.0, 0.0, 0.0, 0.0, 1.707340117686419E9, 0.0, 2024-02-07 13:08:37.686
7.0, 13.667464388068765, 82.30958817480132, -33.74511730019003, -58.69585985457525, -0.06400000303983688, 0.01600000075995922, 1.008000047877431, 0.0, 0.0, 0.0, 0.0, 0.0, 1.707340117686419E9, 0.0, 2024-02-07 13:08:37.686
8.0, -6.729949970263988, 69.63132732501253, -0.602123892866075, -26.562639435287565, -0.06400000303983688, 0.01600000075995922, 1.008000047877431, 0.0, 0.0, 0.0, 0.0, 0.0, 1.707340117702222E9, 0.0, 2024-02-07 13:08:37.702
8.0, -19.741061916109174, 48.250319278333336, 10.015452081337571, 2.735736817587167, -0.06400000303983688, 0.01600000075995922, 1.008000047877431, 0.0, 0.0, 0.0, 0.0, 0.0, 1.707340117702222E9, 0.0, 2024-02-07 13:08:37.702
9.0, 31.043039582204074, 91.83137346198782, -22.54411693289876, -52.53998452750966, -0.06400000303983688, 0.01600000075995922, 1.008000047877431, 0.0, 0.0, 0.0, 0.0, 0.0, 1.707340117705193E9, 0.0, 2024-02-07 13:08:37.705
9.0, 53.504878716077656, 115.14216988580301, -38.5733281429857, -67.78755664685741, -0.06400000303983688, 0.01600000075995922, 1.008000047877431, 0.0, 0.0, 0.0, 0.0, 0.0, 1.707340117705193E9, 0.0, 2024-02-07 13:08:37.705
10.0, 4.422431697603315, 54.42489410517737, 2.7974451668560505, -1.3968526334501803, -0.06400000303983688, 0.01600000075995922, 1.0240000486373901, 0.0, 0.0, 0.0, 0.0, 0.0, 1.707340117716215E9, 0.0, 2024-02-07 13:08:37.716
10.0, 25.62018464645371, 77.7244708291255, -20.812543253414333, -35.29156593186781, -0.06400000303983688, 0.01600000075995922, 1.0240000486373901, 0.0, 0.0, 0.0, 0.0, 0.0, 1.707340117716215E9, 0.0, 2024-02-07 13:08:37.716
11.0, 75.8694804511033, 122.31529800081626, -53.26365516893566, -85.6156597356312, -0.06400000303983688, 0.01600000075995922, 1.0240000486373901, 0.0, 0.0, 0.0, 0.0, 0.0, 1.707340117731868E9, 0.0, 2024-02-07 13:08:37.731
11.0, 12.048087707255036, 65.61467477260157, -11.481492863968015, -17.265248145442456, -0.06400000303983688, 0.01600000075995922, 1.0240000486373901, 0.0, 0.0, 0.0, 0.0, 0.0, 1.707340117731868E9, 0.0, 2024-02-07 13:08:37.731
12.0, 19.647564417216927, 72.24177749408409, -14.144301632419229, -18.839746026787907, -0.06400000303983688, 0.01600000075995922, 1.0240000486373901, 0.0, 0.0, 0.0, 0.0, 0.0, 1.707340117734995E9, 0.0, 2024-02-07 13:08:37.734
12.0, 65.10604837862775, 106.31974589033052, -49.37041931506246, -78.55846851924434, -0.06400000303983688, 0.01600000075995922, 1.0240000486373901, 0.0, 0.0, 0.0, 0.0, 0.0, 1.707340117734995E9, 0.0, 2024-02-07 13:08:37.734
13.0, 31.439468977507204, 76.24721034662798, -28.23998456541449, -38.43308189464733, -0.06400000303983688, 0.01600000075995922, 1.0240000486373901, 0.0, 0.0, 0.0, 0.0, 0.0, 1.707340117746559E9, 0.0, 2024-02-07 13:08:37.746
13.0, -4.63934589503333, 40.51246627001092, -6.185794526711106, 2.4664640207774937, -0.06400000303983688, 0.01600000075995922, 1.0240000486373901, 0.0, 0.0, 0.0, 0.0, 0.0, 1.707340117746559E9, 0.0, 2024-02-07 13:08:37.746
14.0, 29.027233506087214, 69.48921112669632, -28.322262364439666, -38.74349359096959, -0.06400000303983688, 0.01600000075995922, 1.0240000486373901, 0.0, 0.0, 0.0, 0.0, 0.0, 1.707340117762226E9, 0.0, 2024-02-07 13:08:37.762
14.0, 25.051719853188843, 62.64519420778379, -38.416252344846725, -41.469880658667535, -0.06400000303983688, 0.01600000075995922, 1.0240000486373901, 0.0, 0.0, 0.0, 0.0, 0.0, 1.707340117762226E9, 0.0, 2024-02-07 13:08:37.762
15.0, -32.27346666762605, 7.485409761313349, 6.873936118558049, 23.746494768653065, -0.06400000303983688, 0.01600000075995922, 1.0240000486373901, 0.0, 0.0, 0.0, 0.0, 0.0, 1.70734011776539E9, 0.0, 2024-02-07 13:08:37.765
15.0, -17.54200074216351, 20.866771802771837, -9.69382068514824, -0.9854636383242905, -0.06400000303983688, 0.01600000075995922, 1.0240000486373901, 0.0, 0.0, 0.0, 0.0, 0.0, 1.70734011776539E9, 0.0, 2024-02-07 13:08:37.765
16.0, 19.789680615533143, 55.157914496492594, -41.258576311171055, -52.715759825427085, -0.06400000303983688, 0.01600000075995922, 1.0240000486373901, 0.0, 0.0, 0.0, 0.0, 0.0, 1.707340117776104E9, 0.0, 2024-02-07 13:08:37.776
16.0, -38.31340509606525, -12.900784897152334, 8.541931498795748, 26.031573641579598, -0.06400000303983688, 0.01600000075995922, 1.0240000486373901, 0.0, 0.0, 0.0, 0.0, 0.0, 1.707340117776104E9, 0.0, 2024-02-07 13:08:37.776
17.0, -36.204101521056145, -9.564794136676937, 17.495251992717385, 21.682069993112236, -0.06400000303983688, 0.01600000075995922, 1.0240000486373901, 0.0, 0.0, 0.0, 0.0, 0.0, 1.707340117792136E9, 0.0, 2024-02-07 13:08:37.792
17.0, 8.876652544829994, 30.0332665941678, -29.0141438562423, -45.98020000522956, -0.06400000303983688, 0.01600000075995922, 1.0240000486373901, 0.0, 0.0, 0.0, 0.0, 0.0, 1.707340117792136E9, 0.0, 2024-02-07 13:08:37.792
18.0, -10.802701022010297, 19.662524017039686, -3.010619464330375, -16.64816465275362, -0.06400000303983688, 0.01600000075995922, 1.0240000486373901, 0.0, 0.0, 0.0, 0.0, 0.0, 1.70734011779496E9, 0.0, 2024-02-07 13:08:37.794
18.0, -25.421969948802143, -1.164978836197406, 13.059730645269156, 5.327487486880273, -0.06400000303983688, 0.01600000075995922, 1.0240000486373901, 0.0, 0.0, 0.0, 0.0, 0.0, 1.70734011779496E9, 0.0, 2024-02-07 13:08:37.794
19.0, 19.0641400241293, 51.567610539030284, -21.28377064783126, -47.73795298440382, -0.06400000303983688, 0.01600000075995922, 1.0240000486373901, 0.0, 0.0, 0.0, 0.0, 0.0, 1.707340117806571E9, 0.0, 2024-02-07 13:08:37.806
19.0, 41.34272406017408, 61.631681319791824, -38.55836854316294, -68.28496334096417, -0.06400000303983688, 0.01600000075995922, 1.0240000486373901, 0.0, 0.0, 0.0, 0.0, 0.0, 1.707340117806571E9, 0.0, 2024-02-07 13:08:37.806
20.0, 6.4195382739417255, 27.669649822171777, 7.461100411601365, -2.6459792186506093, -0.06400000303983688, 0.01600000075995922, 1.0240000486373901, 0.0, 0.0, 0.0, 0.0, 0.0, 1.707340117822075E9, 0.0, 2024-02-07 13:08:37.822
20.0, 37.53550590528175, 50.23620615480468, -11.765725260600448, -32.87185066053644, -0.06400000303983688, 0.01600000075995922, 1.0240000486373901, 0.0, 0.0, 0.0, 0.0, 0.0, 1.707340117822075E9, 0.0, 2024-02-07 13:08:37.822
21.0, 81.96177747892216, 100.48176205949858, -46.81606764532626, -97.42626379569992, -0.06400000303983688, 0.01600000075995922, 1.0240000486373901, 0.0, 0.0, 0.0, 0.0, 0.0, 1.707340117824982E9, 0.0, 2024-02-07 13:08:37.824
21.0, 34.659522839356214, 45.299538213294, -1.813851478509605, -26.514020735863596, -0.06400000303983688, 0.01600000075995922, 1.0240000486373901, 0.0, 0.0, 0.0, 0.0, 0.0, 1.707340117824982E9, 0.0, 2024-02-07 13:08:37.824
22.0, 41.903709053527564, 51.21232004323974, -7.075890716165304, -33.410396254155785, -0.06400000303983688, 0.01600000075995922, 1.0240000486373901, 0.0, 0.0, 0.0, 0.0, 0.0, 1.707340117836158E9, 0.0, 2024-02-07 13:08:37.836
22.0, 78.65944581804797, 95.02150812419131, -48.0240553310141, -87.69878401095048, -0.06400000303983688, 0.01600000075995922, 1.0240000486373901, 0.0, 0.0, 0.0, 0.0, 0.0, 1.707340117836158E9, 0.0, 2024-02-07 13:08:37.836
23.0, 47.061031092423946, 61.35118882311508, -18.9725124752149, -38.56023849314079, -0.06400000303983688, 0.01600000075995922, 1.0240000486373901, 0.0, 0.0, 0.0, 0.0, 0.0, 1.707340117851882E9, 0.0, 2024-02-07 13:08:37.851
23.0, 13.233635993208736, 23.043393576983362, 5.852943430654705, 5.918391679879278, -0.06400000303983688, 0.01600000075995922, 1.0240000486373901, 0.0, 0.0, 0.0, 0.0, 0.0, 1.707340117851882E9, 0.0, 2024-02-07 13:08:37.851
24.0, 38.623816792387515, 43.60162363341078, -17.607448991388083, -34.4800076414831, -0.06400000303983688, 0.01600000075995922, 1.0240000486373901, 0.0, 0.0, 0.0, 0.0, 0.0, 1.70734011785502E9, 0.0, 2024-02-07 13:08:37.855
24.0, 44.80213151918724, 49.64530196180567, -32.51843011472374, -42.614290045108646, -0.06400000303983688, 0.01600000075995922, 1.0240000486373901, 0.0, 0.0, 0.0, 0.0, 0.0, 1.70734011785502E9, 0.0, 2024-02-07 13:08:37.855
25.0, -16.779061151202768, -11.303847616072744, 13.987225834280252, 36.07694492256269, -0.06400000303983688, 0.01600000075995922, 1.0240000486373901, 0.0, 0.0, 0.0, 0.0, 0.0, 1.707340117866407E9, 0.0, 2024-02-07 13:08:37.866
25.0, -2.414105421397835, 5.611719883512706, -9.6339822858572, 11.359946115408093, -0.06400000303983688, 0.01600000075995922, 1.0240000486373901, 0.0, 0.0, 0.0, 0.0, 0.0, 1.707340117866407E9, 0.0, 2024-02-07 13:08:37.866
26.0, 38.48544049402699, 45.32197761302814, -39.627979930490255, -41.488580158445984, -0.06400000303983688, 0.01600000075995922, 1.0240000486373901, 0.0, 0.0, 0.0, 0.0, 0.0, 1.707340117898448E9, 0.0, 2024-02-07 13:08:37.898
26.0, -18.72380912816152, -8.304447851609439, 4.8880492420867085, 30.209041892085224, -0.06400000303983688, 0.01600000075995922, 1.0240000486373901, 0.0, 0.0, 0.0, 0.0, 0.0, 1.707340117898448E9, 0.0, 2024-02-07 13:08:37.898
27.0, -17.687856840435416, -5.327487486880273, 2.374836471863091, 23.230388574767858, -0.06400000303983688, 0.01600000075995922, 1.0240000486373901, 0.0, 0.0, 0.0, 0.0, 0.0, 1.707340117901225E9, 0.0, 2024-02-07 13:08:37.901
27.0, 27.325579026248306, 47.98852628143504, -34.73993068840355, -43.97187372902408, -0.06400000303983688, 0.01600000075995922, 1.0240000486373901, 0.0, 0.0, 0.0, 0.0, 0.0, 1.707340117901225E9, 0.0, 2024-02-07 13:08:37.901
28.0, 8.25582915218547, 17.87485183821991, -6.496206223033369, -6.789788369555026, -0.06400000303983688, 0.01600000075995922, 1.0240000486373901, 0.0, 0.0, 0.0, 0.0, 0.0, 1.707340117904296E9, 0.0, 2024-02-07 13:08:37.904
28.0, -19.711142716463655, -1.9466179269365966, 18.789257377386093, 23.383724472951144, -0.06400000303983688, 0.01600000075995922, 1.0240000486373901, 0.0, 0.0, 0.0, 0.0, 0.0, 1.707340117904296E9, 0.0, 2024-02-07 13:08:37.904
29.0, 19.782200815621763, 36.55191221693531, -14.652928026393056, -28.477468212600797, -0.06400000303983688, 0.01600000075995922, 1.0240000486373901, 0.0, 0.0, 0.0, 0.0, 0.0, 1.707340117907505E9, 0.0, 2024-02-07 13:08:37.907
29.0, 34.8502577370964, 48.94594067009166, -25.7529510948807, -42.98828004067764, -0.06400000303983688, 0.01600000075995922, 1.0240000486373901, 0.0, 0.0, 0.0, 0.0, 0.0, 1.707340117907505E9, 0.0, 2024-02-07 13:08:37.907
30.0, -14.067633683327585, 3.6071335072629154, 8.238999602384865, 19.748541716020554, -0.06400000303983688, 0.01600000075995922, 1.0240000486373901, 0.0, 0.0, 0.0, 0.0, 0.0, 1.707340117911563E9, 0.0, 2024-02-07 13:08:37.911
30.0, 12.953143496531993, 30.620430887211114, -0.09723739884793758, -8.932751044165343, -0.06400000303983688, 0.01600000075995922, 1.0240000486373901, 0.0, 0.0, 0.0, 0.0, 0.0, 1.707340117911563E9, 0.0, 2024-02-07 13:08:37.911
31.0, 53.560977215413004, 74.67645236523822, -36.871673663146794, -62.64893410773948, -0.06400000303983688, 0.01600000075995922, 1.0240000486373901, 0.0, 0.0, 0.0, 0.0, 0.0, 1.707340117926778E9, 0.0, 2024-02-07 13:08:37.926
31.0, 16.36767215607688, 28.32413231441751, 5.965140429325402, 2.133612924721092, -0.06400000303983688, 0.01600000075995922, 1.0240000486373901, 0.0, 0.0, 0.0, 0.0, 0.0, 1.707340117926778E9, 0.0, 2024-02-07 13:08:37.926
32.0, 22.014921089168638, 34.603424340020865, 4.42056174762547, -2.126133124809712, -0.06400000303983688, 0.01600000075995922, 1.0240000486373901, 0.0, 0.0, 0.0, 0.0, 0.0, 1.707340117942047E9, 0.0, 2024-02-07 13:08:37.942
32.0, 68.12788754282519, 81.84958048025146, -37.03996916115284, -64.44782598642632, -0.06400000303983688, 0.01600000075995922, 1.0240000486373901, 0.0, 0.0, 0.0, 0.0, 0.0, 1.707340117942047E9, 0.0, 2024-02-07 13:08:37.942
33.0, 45.58377060992643, 58.20219306042418, -8.220300102606416, -24.449595960322767, -0.06400000303983688, 0.01600000075995922, 1.0240000486373901, 0.0, 0.0, 0.0, 0.0, 0.0, 1.707340117944811E9, 0.0, 2024-02-07 13:08:37.944
33.0, 31.372150778304785, 31.783539773430675, 8.654128497466445, 4.878699492197484, -0.06400000303983688, 0.01600000075995922, 1.0240000486373901, 0.0, 0.0, 0.0, 0.0, 0.0, 1.707340117944811E9, 0.0, 2024-02-07 13:08:37.944
34.0, 69.67246622452512, 77.73195062903687, -23.120061526075006, -46.75435929605737, -0.06400000303983688, 0.01600000075995922, 1.0240000486373901, 0.0, 0.0, 0.0, 0.0, 0.0, 1.707340117956235E9, 0.0, 2024-02-07 13:08:37.956
34.0, 81.96177747892216, 91.19933036947623, -35.974097673781216, -59.72807224234566, -0.06400000303983688, 0.01600000075995922, 1.0240000486373901, 0.0, 0.0, 0.0, 0.0, 0.0, 1.707340117956235E9, 0.0, 2024-02-07 13:08:37.956
35.0, 44.57399762189016, 51.2646786426194, 7.446140811778605, 8.532581748906523, -0.06400000303983688, 0.01600000075995922, 1.0240000486373901, 0.0, 0.0, 0.0, 0.0, 0.0, 1.70734011797185E9, 0.0, 2024-02-07 13:08:37.971
35.0, 65.70069247158244, 76.02281634928659, -10.45302037615329, -24.326179261785, -0.06400000303983688, 0.01600000075995922, 1.0240000486373901, 0.0, 0.0, 0.0, 0.0, 0.0, 1.70734011797185E9, 0.0, 2024-02-07 13:08:37.971
36.0, 116.83634456573054, 122.08716410351917, -43.11356668919325, -79.31018841033801, -0.06400000303983688, 0.01600000075995922, 1.0240000486373901, 0.0, 0.0, 0.0, 0.0, 0.0, 1.707340117974767E9, 0.0, 2024-02-07 13:08:37.974
36.0, 65.09856857871637, 69.36205452820286, 3.982993452809751, -13.828280086163431, -0.06400000303983688, 0.01600000075995922, 1.0240000486373901, 0.0, 0.0, 0.0, 0.0, 0.0, 1.707340117974767E9, 0.0, 2024-02-07 13:08:37.974
37.0, 65.2706039766781, 72.09592139581218, -0.33285109605640173, -14.090073083061725, -0.06400000303983688, 0.01600000075995922, 1.0240000486373901, 0.0, 0.0, 0.0, 0.0, 0.0, 1.70734011798628E9, 0.0, 2024-02-07 13:08:37.986
37.0, 104.58069241093472, 109.79037304921076, -40.35726042184979, -77.90024612704292, -0.06400000303983688, 0.01600000075995922, 1.0240000486373901, 0.0, 0.0, 0.0, 0.0, 0.0, 1.70734011798628E9, 0.0, 2024-02-07 13:08:37.986
38.0, 84.29173515131697, 87.16397831728682, -14.47341282851994, -32.29590606736019, -0.06400000303983688, 0.01600000075995922, 1.0240000486373901, 0.0, 0.0, 0.0, 0.0, 0.0, 1.707340118002205E9, 0.0, 2024-02-07 13:08:38.002
38.0, 59.63457474345341, 59.70937274256721, 8.661608297377825, 8.371766050811857, -0.06400000303983688, 0.01600000075995922, 1.0240000486373901, 0.0, 0.0, 0.0, 0.0, 0.0, 1.707340118002205E9, 0.0, 2024-02-07 13:08:38.002
39.0, 83.08374746562913, 85.54460163647309, -21.044417050667107, -39.31943818414584, -0.06400000303983688, 0.01600000075995922, 1.0240000486373901, 0.0, 0.0, 0.0, 0.0, 0.0, 1.707340118005416E9, 0.0, 2024-02-07 13:08:38.005
39.0, 88.2448094044812, 95.31322032073513, -33.66657940112054, -47.79779138369486, -0.06400000303983688, 0.01600000075995922, 1.0240000486373901, 0.0, 0.0, 0.0, 0.0, 0.0, 1.707340118005416E9, 0.0, 2024-02-07 13:08:38.005
40.0, 30.201562092173845, 35.818891825620085, 14.047064233571291, 18.200223134364933, -0.06400000303983688, 0.01600000075995922, 1.0240000486373901, 0.0, 0.0, 0.0, 0.0, 0.0, 1.70734011801639E9, 0.0, 2024-02-07 13:08:38.016
40.0, 40.13099647453055, 48.12690257979557, -6.600923421792686, -2.735736817587167, -0.06400000303983688, 0.01600000075995922, 1.0240000486373901, 0.0, 0.0, 0.0, 0.0, 0.0, 1.70734011801639E9, 0.0, 2024-02-07 13:08:38.016
41.0, 77.70203142939135, 81.18761818809435, -33.28884950559586, -44.43936122348532, -0.06400000303983688, 0.01600000075995922, 1.0240000486373901, 0.0, 0.0, 0.0, 0.0, 0.0, 1.707340118031865E9, 0.0, 2024-02-07 13:08:38.031
41.0, 23.18176987534389, 23.20420927507803, 8.108103103935719, 29.105771405156702, -0.06400000303983688, 0.01600000075995922, 1.0240000486373901, 0.0, 0.0, 0.0, 0.0, 0.0, 1.707340118031865E9, 0.0, 2024-02-07 13:08:38.031
42.0, 18.028187736403197, 14.621138876769692, 11.717106561176479, 29.105771405156702, -0.06400000303983688, 0.01600000075995922, 1.0240000486373901, 0.0, 0.0, 0.0, 0.0, 0.0, 1.707340118035223E9, 0.0, 2024-02-07 13:08:38.035
42.0, 53.40016151731834, 60.12450163764879, -28.98422465659678, -31.499307376798242, -0.06400000303983688, 0.01600000075995922, 1.0240000486373901, 0.0, 0.0, 0.0, 0.0, 0.0, 1.707340118035223E9, 0.0, 2024-02-07 13:08:38.035
43.0, 33.773166549857706, 31.405809877905995, -1.3575836839154363, 8.001515955198556, -0.06400000303983688, 0.01600000075995922, 1.0240000486373901, 0.0, 0.0, 0.0, 0.0, 0.0, 1.70734011804636E9, 0.0, 2024-02-07 13:08:38.046
43.0, 1.8306810283102095, 4.426171597559005, 16.4892189046368, 42.47217384679243, -0.06400000303983688, 0.01600000075995922, 1.0240000486373901, 0.0, 0.0, 0.0, 0.0, 0.0, 1.70734011804636E9, 0.0, 2024-02-07 13:08:38.046
44.0, 41.065971463453025, 42.258999549318105, -7.117029615677893, -11.150511717889458, -0.06400000303983688, 0.01600000075995922, 1.0240000486373901, 0.0, 0.0, 0.0, 0.0, 0.0, 1.707340118062134E9, 0.0, 2024-02-07 13:08:38.062
44.0, 54.376275405753404, 57.514051468577236, -22.46931893378496, -26.196129239629954, -0.06400000303983688, 0.01600000075995922, 1.0240000486373901, 0.0, 0.0, 0.0, 0.0, 0.0, 1.707340118062134E9, 0.0, 2024-02-07 13:08:38.062
45.0, 3.5323355081491172, 5.922131579834968, 25.221885301172733, 34.86147743696347, -0.06400000303983688, 0.01600000075995922, 1.0240000486373901, 0.0, 0.0, 0.0, 0.0, 0.0, 1.7073401180654E9, 0.0, 2024-02-07 13:08:38.065
45.0, 26.255967638920993, 32.0715120700188, 1.9858868764713407, 5.981969979126006, -0.06400000303983688, 0.01600000075995922, 1.0240000486373901, 0.0, 0.0, 0.0, 0.0, 0.0, 1.7073401180654E9, 0.0, 2024-02-07 13:08:38.065
46.0, 67.99699104437605, 71.07118880795315, -31.890126922167838, -49.84351665945724, -0.06400000303983688, 0.01600000075995922, 1.0240000486373901, 0.0, 0.0, 0.0, 0.0, 0.0, 1.70734011807645E9, 0.0, 2024-02-07 13:08:38.076
46.0, 18.821046527009457, 29.348864902276546, 1.8362908782437444, 14.550080777611583, -0.06400000303983688, 0.01600000075995922, 1.0240000486373901, 0.0, 0.0, 0.0, 0.0, 0.0, 1.70734011807645E9, 0.0, 2024-02-07 13:08:38.076
47.0, 27.12362442864105, 34.27805304387584, 6.159615227021277, 5.103093489538878, -0.06400000303983688, 0.01600000075995922, 1.0240000486373901, 0.0, 0.0, 0.0, 0.0, 0.0, 1.707340118091839E9, 0.0, 2024-02-07 13:08:38.091
47.0, 75.62638695398346, 78.4649710203521, -35.158799483440816, -55.84979598829523, -0.06400000303983688, 0.01600000075995922, 1.0240000486373901, 0.0, 0.0, 0.0, 0.0, 0.0, 1.707340118091839E9, 0.0, 2024-02-07 13:08:38.091
48.0, 47.517298887018114, 53.2281261193566, -13.486079240217805, -19.92431701393798, -0.06400000303983688, 0.01600000075995922, 1.0240000486373901, 0.0, 0.0, 0.0, 0.0, 0.0, 1.707340118094829E9, 0.0, 2024-02-07 13:08:38.094
48.0, 14.804393974598497, 28.35405151406303, 11.24587916675955, 11.685317411553115, -0.06400000303983688, 0.01600000075995922, 1.0240000486373901, 0.0, 0.0, 0.0, 0.0, 0.0, 1.707340118094829E9, 0.0, 2024-02-07 13:08:38.094
49.0, 43.79609843110666, 59.8627086407505, -15.651481314562261, -32.41558286594227, -0.06400000303983688, 0.01600000075995922, 1.0240000486373901, 0.0, 0.0, 0.0, 0.0, 0.0, 1.707340118106099E9, 0.0, 2024-02-07 13:08:38.106
49.0, 45.486533211078495, 61.179153425153345, -31.557275826111436, -42.17672175029293, -0.06400000303983688, 0.01600000075995922, 1.0240000486373901, 0.0, 0.0, 0.0, 0.0, 0.0, 1.707340118106099E9, 0.0, 2024-02-07 13:08:38.106
50.0, -15.52245476609096, 6.729949970263988, 18.830396276898682, 30.560592487920076, -0.06400000303983688, 0.01600000075995922, 1.0240000486373901, 0.0, 0.0, 0.0, 0.0, 0.0, 1.707340118122319E9, 0.0, 2024-02-07 13:08:38.122
50.0, 2.892812615726143, 18.484455530997366, 8.291358201764524, 5.45090418541804, -0.06400000303983688, 0.01600000075995922, 1.0240000486373901, 0.0, 0.0, 0.0, 0.0, 0.0, 1.707340118122319E9, 0.0, 2024-02-07 13:08:38.122
51.0, 34.554805640596896, 55.81239698873833, -24.234551712870598, -46.81419769534841, -0.06400000303983688, 0.01600000075995922, 1.0240000486373901, 0.0, 0.0, 0.0, 0.0, 0.0, 1.707340118137511E9, 0.0, 2024-02-07 13:08:38.137
51.0, -22.632004581857473, -9.250642540398985, 20.47595225740224, 23.458522472064942, -0.06400000303983688, 0.01600000075995922, 1.0240000486373901, 0.0, 0.0, 0.0, 0.0, 0.0, 1.707340118137511E9, 0.0, 2024-02-07 13:08:38.137
52.0, -23.451042672153562, -6.490596373099834, 18.766817977651954, 29.12821080489084, -0.06400000303983688, 0.01600000075995922, 1.0240000486373901, 0.0, 0.0, 0.0, 0.0, 0.0, 1.707340118140502E9, 0.0, 2024-02-07 13:08:38.140
52.0, 12.979322796221823, 27.61355132283643, -19.29788377135992, -32.01541357068345, -0.06400000303983688, 0.01600000075995922, 1.0240000486373901, 0.0, 0.0, 0.0, 0.0, 0.0, 1.707340118140502E9, 0.0, 2024-02-07 13:08:38.140
53.0, -15.698230064008385, 4.186818000394851, 10.254805678501725, 9.564794136676937, -0.06400000303983688, 0.01600000075995922, 1.0240000486373901, 0.0, 0.0, 0.0, 0.0, 0.0, 1.707340118152059E9, 0.0, 2024-02-07 13:08:38.152
53.0, -47.79779138369486, -26.472881836351007, 32.750303911976516, 43.422108435537666, -0.06400000303983688, 0.01600000075995922, 1.0240000486373901, 0.0, 0.0, 0.0, 0.0, 0.0, 1.707340118152059E9, 0.0, 2024-02-07 13:08:38.152
54.0, -23.20046937512234, 7.365732962731272, -5.276998837478459, -4.411211997736245, -0.06400000303983688, 0.01600000075995922, 1.0240000486373901, 0.0, 0.0, 0.0, 0.0, 0.0, 1.707340118155049E9, 0.0, 2024-02-07 13:08:38.155
54.0, -10.208056929055601, 15.275621369015425, -6.720600220374763, -13.51412848988548, -0.06400000303983688, 0.01600000075995922, 1.0240000486373901, 0.0, 0.0, 0.0, 0.0, 0.0, 1.707340118155049E9, 0.0, 2024-02-07 13:08:38.155
55.0, -59.6383146434091, -41.043532063718885, 41.03044241387397, 49.60416306229308, -0.06400000303983688, 0.01600000075995922, 1.0240000486373901, 0.0, 0.0, 0.0, 0.0, 0.0, 1.707340118166287E9, 0.0, 2024-02-07 13:08:38.166
55.0, -46.58232389809564, -25.97173524228856, 16.47051940485835, 23.413643672596663, -0.06400000303983688, 0.01600000075995922, 1.0240000486373901, 0.0, 0.0, 0.0, 0.0, 0.0, 1.707340118166287E9, 0.0, 2024-02-07 13:08:38.166
56.0, -8.394205450545996, 21.46141589572653, -12.648341650143266, -26.80199303245172, -0.06400000303983688, 0.01600000075995922, 1.0240000486373901, 0.0, 0.0, 0.0, 0.0, 0.0, 1.707340118181847E9, 0.0, 2024-02-07 13:08:38.181
56.0, -65.11726807849482, -32.46420156536624, 32.13322041928768, 39.18854168569669, -0.06400000303983688, 0.01600000075995922, 1.0240000486373901, 0.0, 0.0, 0.0, 0.0, 0.0, 1.707340118181847E9, 0.0, 2024-02-07 13:08:38.181
57.0, -62.798530105967075, -26.510280835907906, 28.849588258191943, 39.76448627887294, -0.06400000303983688, 0.01600000075995922, 1.0240000486373901, 0.0, 0.0, 0.0, 0.0, 0.0, 1.707340118184831E9, 0.0, 2024-02-07 13:08:38.184
57.0, -15.541154265869409, 16.143278158735484, -9.484386287629604, -20.68725660489872, -0.06400000303983688, 0.01600000075995922, 1.0240000486373901, 0.0, 0.0, 0.0, 0.0, 0.0, 1.707340118184831E9, 0.0, 2024-02-07 13:08:38.184
58.0, -39.30821848427877, -13.562747189309448, 9.162754891440272, 13.768441686872393, -0.06400000303983688, 0.01600000075995922, 1.0240000486373901, 0.0, 0.0, 0.0, 0.0, 0.0, 1.707340118196175E9, 0.0, 2024-02-07 13:08:38.196
58.0, -64.69091948354617, -36.72020771494135, 31.957445121370256, 48.78886487195268, -0.06400000303983688, 0.01600000075995922, 1.0240000486373901, 0.0, 0.0, 0.0, 0.0, 0.0, 1.707340118196175E9, 0.0, 2024-02-07 13:08:38.196
59.0, -32.67363596288487, -7.777121957857162, 5.037645240314305, 1.288395534735173, -0.06400000303983688, 0.01600000075995922, 1.0240000486373901, 0.0, 0.0, 0.0, 0.0, 0.0, 1.707340118212123E9, 0.0, 2024-02-07 13:08:38.212
59.0, -19.030480924528092, 5.690257782582194, -6.182054626755416, -14.744555575307459, -0.06400000303983688, 0.01600000075995922, 1.0240000486373901, 0.0, 0.0, 0.0, 0.0, 0.0, 1.707340118212123E9, 0.0, 2024-02-07 13:08:38.212
60.0, -67.24153125332668, -49.559284262824804, 44.070981077849865, 56.81469017686322, -0.06400000303983688, 0.01600000075995922, 1.0240000486373901, 0.0, 0.0, 0.0, 0.0, 0.0, 1.707340118215284E9, 0.0, 2024-02-07 13:08:38.215
60.0, -56.10036928532645, -31.843378172721714, 19.469919169321656, 29.898630195762962, -0.06400000303983688, 0.01600000075995922, 1.0240000486373901, 0.0, 0.0, 0.0, 0.0, 0.0, 1.707340118215284E9, 0.0, 2024-02-07 13:08:38.215
61.0, -20.563839906360954, 3.988603302743286, -15.352289318107069, -24.34487876156345, -0.06400000303983688, 0.01600000075995922, 1.0240000486373901, 0.0, 0.0, 0.0, 0.0, 0.0, 1.707340118226542E9, 0.0, 2024-02-07 13:08:38.226
61.0, -74.11172747192904, -54.376275405753404, 24.477645209990442, 44.719853720162064, -0.06400000303983688, 0.01600000075995922, 1.0240000486373901, 0.0, 0.0, 0.0, 0.0, 0.0, 1.707340118226542E9, 0.0, 2024-02-07 13:08:38.226
62.0, -68.32984214043245, -48.53081177501008, 31.086048431694508, 46.48134659929201, -0.06400000303983688, 0.01600000075995922, 1.0240000486373901, 0.0, 0.0, 0.0, 0.0, 0.0, 1.707340118241844E9, 0.0, 2024-02-07 13:08:38.241
62.0, -25.15269715199247, -4.403732197824866, -11.515151963569224, -10.825140421744436, -0.06400000303983688, 0.01600000075995922, 1.0240000486373901, 0.0, 0.0, 0.0, 0.0, 0.0, 1.707340118241844E9, 0.0, 2024-02-07 13:08:38.241
63.0, -52.58860322693363, -35.25042703235522, 17.012804898433387, 30.85604458441958, -0.06400000303983688, 0.01600000075995922, 1.0240000486373901, 0.0, 0.0, 0.0, 0.0, 0.0, 1.707340118244841E9, 0.0, 2024-02-07 13:08:38.244
63.0, -82.48536347271875, -62.349742111284286, 31.78166982345283, 72.58584829000756, -0.06400000303983688, 0.01600000075995922, 1.0240000486373901, 0.0, 0.0, 0.0, 0.0, 0.0, 1.707340118244841E9, 0.0, 2024-02-07 13:08:38.244
64.0, -56.332243082579225, -34.83903803722933, 7.842570207081735, 30.616690987255424, -0.06400000303983688, 0.01600000075995922, 1.0240000486373901, 0.0, 0.0, 0.0, 0.0, 0.0, 1.70734011825615E9, 0.0, 2024-02-07 13:08:38.256
64.0, -51.3020776421763, -28.71682180976495, -8.489572899416089, 17.628018441144377, -0.06400000303983688, 0.01600000075995922, 1.0240000486373901, 0.0, 0.0, 0.0, 0.0, 0.0, 1.70734011825615E9, 0.0, 2024-02-07 13:08:38.256
65.0, -106.91812988324091, -81.14647928858176, 37.593474354594946, 86.6890110229142, -0.06400000303983688, 0.01600000075995922, 1.0240000486373901, 0.0, 0.0, 0.0, 0.0, 0.0, 1.707340118272134E9, 0.0, 2024-02-07 13:08:38.272
65.0, -101.21104255085811, -71.54989600228146, 25.165786801837385, 66.72168515948579, -0.06400000303983688, 0.01600000075995922, 1.0240000486373901, 0.0, 0.0, 0.0, 0.0, 0.0, 1.707340118272134E9, 0.0, 2024-02-07 13:08:38.272
66.0, -69.36579442815855, -38.90056938910857, -8.930881094187498, 11.87231240933761, -0.06400000303983688, 0.01600000075995922, 1.0240000486373901, 0.0, 0.0, 0.0, 0.0, 0.0, 1.707340118275435E9, 0.0, 2024-02-07 13:08:38.275
66.0, -130.51315870368853, -97.24674859782681, 43.38657938595861, 86.88722572056577, -0.06400000303983688, 0.01600000075995922, 1.0240000486373901, 0.0, 0.0, 0.0, 0.0, 0.0, 1.707340118275435E9, 0.0, 2024-02-07 13:08:38.275
67.0, -135.99959193868563, -105.08183900499716, 46.74500954616815, 92.51203525392339, -0.06400000303983688, 0.01600000075995922, 1.0240000486373901, 0.0, 0.0, 0.0, 0.0, 0.0, 1.707340118286175E9, 0.0, 2024-02-07 13:08:38.286
67.0, -101.29332034988329, -67.11437465483323, 2.2402000734582543, 42.10940355109051, -0.06400000303983688, 0.01600000075995922, 1.0240000486373901, 0.0, 0.0, 0.0, 0.0, 0.0, 1.707340118286175E9, 0.0, 2024-02-07 13:08:38.286
68.0, -127.32676394144073, -93.52554814191535, 33.07941510807723, 80.77622919296846, -0.06400000303983688, 0.01600000075995922, 1.0240000486373901, 0.0, 0.0, 0.0, 0.0, 0.0, 1.70734011830182E9, 0.0, 2024-02-07 13:08:38.301
68.0, -150.60016136569902, -122.0759444036521, 58.510734806768596, 116.89244306506589, -0.06400000303983688, 0.01600000075995922, 1.0240000486373901, 0.0, 0.0, 0.0, 0.0, 0.0, 1.70734011830182E9, 0.0, 2024-02-07 13:08:38.301
69.0, -122.74912639567629, -82.21609067590907, 29.870580946095288, 74.40343966847286, -0.06400000303983688, 0.01600000075995922, 1.0240000486373901, 0.0, 0.0, 0.0, 0.0, 0.0, 1.707340118305023E9, 0.0, 2024-02-07 13:08:38.305
69.0, -107.74464777344838, -70.7196382121183, 12.008818757720292, 59.36904184659943, -0.06400000303983688, 0.01600000075995922, 1.0240000486373901, 0.0, 0.0, 0.0, 0.0, 0.0, 1.707340118305023E9, 0.0, 2024-02-07 13:08:38.305
70.0, -151.51269695488736, -113.63125030370429, 50.918737896718085, 124.48817987507209, -0.06400000303983688, 0.01600000075995922, 1.0240000486373901, 0.0, 0.0, 0.0, 0.0, 0.0, 1.707340118316179E9, 0.0, 2024-02-07 13:08:38.316
70.0, -128.6357289259322, -88.64123879978433, 33.30754900537431, 90.0960598825477, -0.06400000303983688, 0.01600000075995922, 1.0240000486373901, 0.0, 0.0, 0.0, 0.0, 0.0, 1.707340118316179E9, 0.0, 2024-02-07 13:08:38.316
71.0, -80.20028459979221, -44.21122732618824, -2.1541823744773865, 44.667495120782405, -0.06400000303983688, 0.01600000075995922, 1.0240000486373901, 0.0, 0.0, 0.0, 0.0, 0.0, 1.707340118332508E9, 0.0, 2024-02-07 13:08:38.332
71.0, -124.69761427259073, -85.5034627369605, 39.31008843425661, 108.36173126613721, -0.06400000303983688, 0.01600000075995922, 1.0240000486373901, 0.0, 0.0, 0.0, 0.0, 0.0, 1.707340118332508E9, 0.0, 2024-02-07 13:08:38.332
72.0, -116.48479396989569, -86.38981902645901, 43.93634467944503, 103.01367432950065, -0.06400000303983688, 0.01600000075995922, 1.0240000486373901, 0.0, 0.0, 0.0, 0.0, 0.0, 1.70734011833675E9, 0.0, 2024-02-07 13:08:38.336
72.0, -67.3088494525291, -31.95557517139241, 0.605863792821765, 40.273112672846764, -0.06400000303983688, 0.01600000075995922, 1.0240000486373901, 0.0, 0.0, 0.0, 0.0, 0.0, 1.70734011833675E9, 0.0, 2024-02-07 13:08:38.336
73.0, -80.0918275010772, -43.912035329733044, 26.699145783670247, 64.47026538616046, -0.06400000303983688, 0.01600000075995922, 1.0240000486373901, 0.0, 0.0, 0.0, 0.0, 0.0, 1.707340118346201E9, 0.0, 2024-02-07 13:08:38.346
73.0, -96.33795290859416, -62.757391206454486, 40.78734891675413, 93.21887634554878, -0.06400000303983688, 0.01600000075995922, 1.0240000486373901, 0.0, 0.0, 0.0, 0.0, 0.0, 1.707340118346201E9, 0.0, 2024-02-07 13:08:38.346
74.0, -44.59269712166861, -16.816460150759667, 15.165294320322573, 40.677021868061274, -0.06400000303983688, 0.01600000075995922, 1.0240000486373901, 0.0, 0.0, 0.0, 0.0, 0.0, 1.707340118362225E9, 0.0, 2024-02-07 13:08:38.362
74.0, -30.36237779026851, -1.6399461305700243, 1.7876721788197756, 17.85241243848577, -0.06400000303983688, 0.01600000075995922, 1.0240000486373901, 0.0, 0.0, 0.0, 0.0, 0.0, 1.707340118362225E9, 0.0, 2024-02-07 13:08:38.362
75.0, -71.13476710719988, -43.60536353336647, 44.070981077849865, 85.13695254130289, -0.06400000303983688, 0.01600000075995922, 1.0240000486373901, 0.0, 0.0, 0.0, 0.0, 0.0, 1.707340118365366E9, 0.0, 2024-02-07 13:08:38.365
75.0, -52.5998229268007, -17.5083416425623, 19.31658327113837, 54.42115420522168, -0.06400000303983688, 0.01600000075995922, 1.0240000486373901, 0.0, 0.0, 0.0, 0.0, 0.0, 1.707340118365366E9, 0.0, 2024-02-07 13:08:38.365
76.0, -8.884132344741374, 25.867018043529242, -15.823516712523997, -3.7716891053132713, -0.06400000303983688, 0.01600000075995922, 1.0240000486373901, 0.0, 0.0, 0.0, 0.0, 0.0, 1.707340118376363E9, 0.0, 2024-02-07 13:08:38.376
76.0, -57.2298190719448, -26.962808730546385, 29.070242355577648, 63.04536350304261, -0.06400000303983688, 0.01600000075995922, 1.0240000486373901, 0.0, 0.0, 0.0, 0.0, 0.0, 1.707340118376363E9, 0.0, 2024-02-07 13:08:38.376
77.0, -49.069357368629426, -21.842885691206902, 33.74137740023434, 63.80456319404766, -0.06400000303983688, 0.01600000075995922, 1.0240000486373901, 0.0, 0.0, 0.0, 0.0, 0.0, 1.707340118392866E9, 0.0, 2024-02-07 13:08:38.392
77.0, -11.550681013148278, 18.226402434054762, -2.3486571721732616, 0.3459407459013164, -0.06400000303983688, 0.01600000075995922, 1.0240000486373901, 0.0, 0.0, 0.0, 0.0, 0.0, 1.707340118392866E9, 0.0, 2024-02-07 13:08:38.392
78.0, -38.605117292609066, -9.88642553286627, 19.447479769587517, 36.96704111201689, -0.06400000303983688, 0.01600000075995922, 1.0240000486373901, 0.0, 0.0, 0.0, 0.0, 0.0, 1.707340118395734E9, 0.0, 2024-02-07 13:08:38.395
78.0, -57.514051468577236, -28.997314306441694, 37.76176985260099, 69.06286253174767, -0.06400000303983688, 0.01600000075995922, 1.0240000486373901, 0.0, 0.0, 0.0, 0.0, 0.0, 1.707340118395734E9, 0.0, 2024-02-07 13:08:38.395
79.0, -23.316406273748726, 8.906571744475514, 7.045971516519785, 20.489041907247156, -0.06400000303983688, 0.01600000075995922, 1.0240000486373901, 0.0, 0.0, 0.0, 0.0, 0.0, 1.707340118406645E9, 0.0, 2024-02-07 13:08:38.406
79.0, -7.178737964946777, 23.357545173261315, -4.742193143814802, 3.2705425112508237, -0.06400000303983688, 0.01600000075995922, 1.0240000486373901, 0.0, 0.0, 0.0, 0.0, 0.0, 1.707340118406645E9, 0.0, 2024-02-07 13:08:38.406
80.0, -47.449980687815696, -25.16391685185954, 45.80255475733429, 67.6790995481424, -0.06400000303983688, 0.01600000075995922, 1.0240000486373901, 0.0, 0.0, 0.0, 0.0, 0.0, 1.707340118422256E9, 0.0, 2024-02-07 13:08:38.422
80.0, -27.60233162296936, -1.9540977268479764, 25.81278949417174, 38.45552129438147, -0.06400000303983688, 0.01600000075995922, 1.0240000486373901, 0.0, 0.0, 0.0, 0.0, 0.0, 1.707340118422256E9, 0.0, 2024-02-07 13:08:38.422
81.0, 16.782801051158458, 38.85569058964029, -7.154428615234792, -9.415198138449341, -0.06400000303983688, 0.01600000075995922, 1.0240000486373901, 0.0, 0.0, 0.0, 0.0, 0.0, 1.707340118425346E9, 0.0, 2024-02-07 13:08:38.425
81.0, -22.456229283940047, -9.000069243367761, 34.27992299385369, 51.19362054346129, -0.06400000303983688, 0.01600000075995922, 1.0240000486373901, 0.0, 0.0, 0.0, 0.0, 0.0, 1.707340118425346E9, 0.0, 2024-02-07 13:08:38.425
82.0, -13.787141186650842, 4.916098491754383, 22.847048829309642, 38.631296592298895, -0.0800000037997961, 0.01600000075995922, 1.0240000486373901, 0.0, 0.0, 0.0, 0.0, 0.0, 1.707340118436289E9, 0.0, 2024-02-07 13:08:38.436
82.0, 33.93772214790806, 54.17058090819046, -18.280630983412266, -26.188649439718574, -0.0800000037997961, 0.01600000075995922, 1.0240000486373901, 0.0, 0.0, 0.0, 0.0, 0.0, 1.707340118436289E9, 0.0, 2024-02-07 13:08:38.436
83.0, 16.016121560242027, 35.358884131070226, 9.521785287186503, 11.404824914876372, -0.0800000037997961, 0.01600000075995922, 1.0240000486373901, 0.0, 0.0, 0.0, 0.0, 0.0, 1.707340118452042E9, 0.0, 2024-02-07 13:08:38.452
83.0, -10.488549425732344, 18.787387427408248, 27.963231968693435, 41.006133064161986, -0.0800000037997961, 0.01600000075995922, 1.0240000486373901, 0.0, 0.0, 0.0, 0.0, 0.0, 1.707340118452042E9, 0.0, 2024-02-07 13:08:38.452
84.0, 34.37155054276809, 54.739045701455325, -0.022439399734139442, -7.354513262864202, -0.0800000037997961, 0.01600000075995922, 1.0240000486373901, 0.0, 0.0, 0.0, 0.0, 0.0, 1.707340118454845E9, 0.0, 2024-02-07 13:08:38.454
84.0, 44.80213151918724, 67.04331655567512, -17.27833779528737, -22.157037287484854, -0.0800000037997961, 0.01600000075995922, 1.0240000486373901, 0.0, 0.0, 0.0, 0.0, 0.0, 1.707340118454845E9, 0.0, 2024-02-07 13:08:38.454
85.0, -0.3945594453252852, 19.602685617748648, 29.272196953184903, 48.10820308001712, -0.0800000037997961, 0.01600000075995922, 1.0240000486373901, 0.0, 0.0, 0.0, 0.0, 0.0, 1.707340118466264E9, 0.0, 2024-02-07 13:08:38.466
85.0, 15.07366677140817, 45.3743362124078, 0.643262792378664, 11.244009216781706, -0.0800000037997961, 0.01600000075995922, 1.0240000486373901, 0.0, 0.0, 0.0, 0.0, 0.0, 1.707340118466264E9, 0.0, 2024-02-07 13:08:38.466
86.0, 76.17615224746987, 94.37450543185696, -35.95913807395846, -40.39652937138453, -0.0800000037997961, 0.01600000075995922, 1.0240000486373901, 0.0, 0.0, 0.0, 0.0, 0.0, 1.70734011848184E9, 0.0, 2024-02-07 13:08:38.481
86.0, 39.26707958476618, 56.42948048142716, -3.332250860519707, 19.57650631805882, -0.0800000037997961, 0.01600000075995922, 1.0240000486373901, 0.0, 0.0, 0.0, 0.0, 0.0, 1.70734011848184E9, 0.0, 2024-02-07 13:08:38.481
87.0, 39.32317808410153, 48.59439007425681, 0.1570757981389761, 21.704509392846376, -0.0800000037997961, 0.01600000075995922, 1.0240000486373901, 0.0, 0.0, 0.0, 0.0, 0.0, 1.707340118484818E9, 0.0, 2024-02-07 13:08:38.484
87.0, 52.726979525294155, 64.6796997836791, -21.122954949736595, -24.113004964310676, -0.0800000037997961, 0.01600000075995922, 1.0240000486373901, 0.0, 0.0, 0.0, 0.0, 0.0, 1.707340118484818E9, 0.0, 2024-02-07 13:08:38.484
88.0, -7.45923046162352, 13.304694092366844, 21.212712548673153, 25.313512850087136, -0.0800000037997961, 0.01600000075995922, 1.0240000486373901, 0.0, 0.0, 0.0, 0.0, 0.0, 1.707340118496167E9, 0.0, 2024-02-07 13:08:38.496
88.0, -67.5295035499148, -41.443701358977705, 52.545594377443194, 78.89505951525643, -0.0800000037997961, 0.01600000075995922, 1.0240000486373901, 0.0, 0.0, 0.0, 0.0, 0.0, 1.707340118496167E9, 0.0, 2024-02-07 13:08:38.496
89.0, -29.902370095718652, -6.4980761730112135, 27.31248937640339, 30.986941082868725, -0.0800000037997961, 0.01600000075995922, 1.0240000486373901, 0.0, 0.0, 0.0, 0.0, 0.0, 1.707340118512065E9, 0.0, 2024-02-07 13:08:38.512
89.0, 12.754928798880428, 39.57001148117706, -4.03535205218941, -7.3844324625097215, -0.0800000037997961, 0.01600000075995922, 1.0240000486373901, 0.0, 0.0, 0.0, 0.0, 0.0, 1.707340118512065E9, 0.0, 2024-02-07 13:08:38.512
90.0, -8.27452865196392, 21.375398196745664, 26.22043858934194, 44.93302801763639, -0.0800000037997961, 0.01600000075995922, 1.0240000486373901, 0.0, 0.0, 0.0, 0.0, 0.0, 1.707340118515048E9, 0.0, 2024-02-07 13:08:38.515
90.0, 29.734074597712606, 57.38315497012809, 1.0621315874159336, 12.597853000741452, -0.0800000037997961, 0.01600000075995922, 1.0240000486373901, 0.0, 0.0, 0.0, 0.0, 0.0, 1.707340118515048E9, 0.0, 2024-02-07 13:08:38.515
91.0, 92.68033075192943, 114.16979589732364, -42.79567519295961, -50.47555975196883, -0.0800000037997961, 0.01600000075995922, 1.0240000486373901, 0.0, 0.0, 0.0, 0.0, 0.0, 1.707340118526399E9, 0.0, 2024-02-07 13:08:38.526
91.0, 55.127995296847075, 75.31971515761688, -11.627348962239921, 3.7193305059336126, -0.0800000037997961, 0.01600000075995922, 1.0240000486373901, 0.0, 0.0, 0.0, 0.0, 0.0, 1.707340118526399E9, 0.0, 2024-02-07 13:08:38.526
92.0, 66.72542505944148, 86.97698331950232, -9.551704486832023, -3.670711806509644, -0.06400000303983688, 0.01600000075995922, 1.0240000486373901, 0.0, 0.0, 0.0, 0.0, 0.0, 1.707340118542379E9, 0.0, 2024-02-07 13:08:38.542
92.0, 100.00305486517027, 118.23880704911426, -47.62762593571097, -52.54746432742104, -0.06400000303983688, 0.01600000075995922, 1.0240000486373901, 0.0, 0.0, 0.0, 0.0, 0.0, 1.707340118542379E9, 0.0, 2024-02-07 13:08:38.542
93.0, 54.19676020788029, 66.50103106210008, -13.519738339819014, -8.461523649748415, -0.06400000303983688, 0.01600000075995922, 1.0240000486373901, 0.0, 0.0, 0.0, 0.0, 0.0, 1.707340118545729E9, 0.0, 2024-02-07 13:08:38.545
93.0, 6.2587225758470595, 19.378291620407254, 11.500192363746464, 28.155836816411465, -0.06400000303983688, 0.01600000075995922, 1.0240000486373901, 0.0, 0.0, 0.0, 0.0, 0.0, 1.707340118545729E9, 0.0, 2024-02-07 13:08:38.545
94.0, 16.195636758115143, 27.94640241889283, -9.985532881692052, -0.9405848388560116, -0.06400000303983688, 0.01600000075995922, 1.0240000486373901, 0.0, 0.0, 0.0, 0.0, 0.0, 1.707340118556182E9, 0.0, 2024-02-07 13:08:38.556
94.0, 6.909465168137103, 22.602085382211953, -18.602262379601598, -14.045194283593446, -0.06400000303983688, 0.01600000075995922, 1.0240000486373901, 0.0, 0.0, 0.0, 0.0, 0.0, 1.707340118556182E9, 0.0, 2024-02-07 13:08:38.556
95.0, -41.34646396012977, -24.894644055049866, 30.17725274246186, 51.560130739118904, -0.06400000303983688, 0.01600000075995922, 1.0240000486373901, 0.0, 0.0, 0.0, 0.0, 0.0, 1.707340118571829E9, 0.0, 2024-02-07 13:08:38.571
95.0, -21.93638319009915, 2.047595225740224, 13.923647535033524, 25.298553250264376, -0.06400000303983688, 0.01600000075995922, 1.0240000486373901, 0.0, 0.0, 0.0, 0.0, 0.0, 1.707340118571829E9, 0.0, 2024-02-07 13:08:38.571
96.0, 31.072958781849593, 55.06441699760035, -24.679599807597697, -29.778953397180885, -0.06400000303983688, 0.01600000075995922, 1.0240000486373901, 0.0, 0.0, 0.0, 0.0, 0.0, 1.707340118574826E9, 0.0, 2024-02-07 13:08:38.574
96.0, 14.31446708040312, 37.2213543090038, 2.8273643665015697, 20.571319706272334, -0.06400000303983688, 0.01600000075995922, 1.0240000486373901, 0.0, 0.0, 0.0, 0.0, 0.0, 1.707340118574826E9, 0.0, 2024-02-07 13:08:38.574
97.0, 65.28182367654517, 88.01293560722843, -10.415621376596391, -1.9129588273353875, -0.06400000303983688, 0.01600000075995922, 1.0240000486373901, 0.0, 0.0, 0.0, 0.0, 0.0, 1.707340118586291E9, 0.0, 2024-02-07 13:08:38.586
97.0, 148.74517098767683, 169.92048453679308, -65.56418612319976, -79.62807990657166, -0.06400000303983688, 0.01600000075995922, 1.0240000486373901, 0.0, 0.0, 0.0, 0.0, 0.0, 1.707340118586291E9, 0.0, 2024-02-07 13:08:38.586
98.0, 178.05102704046294, 192.6702959672548, -53.79472096264362, -61.51200452120975, -0.06400000303983688, 0.01600000075995922, 1.0240000486373901, 0.0, 0.0, 0.0, 0.0, 0.0, 1.707340118602056E9, 0.0, 2024-02-07 13:08:38.602
98.0, 204.8174910233356, 214.4178142095916, -48.67105802334845, -57.02412457438186, -0.06400000303983688, 0.01600000075995922, 1.0240000486373901, 0.0, 0.0, 0.0, 0.0, 0.0, 1.707340118602056E9, 0.0, 2024-02-07 13:08:38.602
99.0, 280.50184642663226, 283.785478587728, -83.67652160860598, -123.04831839213148, -0.06400000303983688, 0.01600000075995922, 1.0240000486373901, 0.0, 0.0, 0.0, 0.0, 0.0, 1.707340118604964E9, 0.0, 2024-02-07 13:08:38.604
99.0, 339.1771368314512, 336.3946512644179, -109.3845939040184, -155.67520560557023, -0.06400000303983688, 0.01600000075995922, 1.0240000486373901, 0.0, 0.0, 0.0, 0.0, 0.0, 1.707340118604964E9, 0.0, 2024-02-07 13:08:38.604
100.0, 320.9787836470641, 320.0251091583632, -70.68784906249493, -107.83814527234063, -0.06400000303983688, 0.01600000075995922, 1.008000047877431, 0.0, 0.0, 0.0, 0.0, 0.0, 1.707340118617065E9, 0.0, 2024-02-07 13:08:38.617
100.0, 360.0457785842009, 356.98654042044654, -91.32461701799184, -140.46503248577937, -0.06400000303983688, 0.01600000075995922, 1.008000047877431, 0.0, 0.0, 0.0, 0.0, 0.0, 1.707340118617065E9, 0.0, 2024-02-07 13:08:38.617
0.0, 430.8028157958761, 418.26854109438136, -128.5403614770621, -198.0164829539135, -0.06400000303983688, 0.01600000075995922, 1.008000047877431, 0.0, 0.0, 0.0, 0.0, 0.0, 1.707340118619952E9, 0.0, 2024-02-07 13:08:38.619
1.0, 391.9938739556819, 370.7979909568094, -80.39288944751024, -134.53916100598872, -0.06400000303983688, 0.01600000075995922, 1.008000047877431, 0.0, 0.0, 0.0, 0.0, 0.0, 1.707340118631097E9, 0.0, 2024-02-07 13:08:38.631
1.0, 382.56558616738766, 359.0696646957658, -76.76144659053534, -128.66751807555556, -0.06400000303983688, 0.01600000075995922, 1.008000047877431, 0.0, 0.0, 0.0, 0.0, 0.0, 1.707340118631097E9, 0.0, 2024-02-07 13:08:38.631
2.0, 395.58043801318854, 372.76517833350226, -73.96400142367929, -167.05385122075677, -0.06400000303983688, 0.01600000075995922, 1.008000047877431, 0.0, 0.0, 0.0, 0.0, 0.0, 1.707340118646933E9, 0.0, 2024-02-07 13:08:38.646
2.0, 325.7490260405466, 295.96259284345433, -28.494297762401402, -108.2364446176216, -0.06400000303983688, 0.01600000075995922, 1.008000047877431, 0.0, 0.0, 0.0, 0.0, 0.0, 1.707340118646933E9, 0.0, 2024-02-07 13:08:38.646
3.0, 253.21740629989654, 219.73969184653834, 11.503932263702154, -48.69349742308259, -0.06400000303983688, 0.01600000075995922, 1.008000047877431, 0.0, 0.0, 0.0, 0.0, 0.0, 1.707340118649833E9, 0.0, 2024-02-07 13:08:38.649
3.0, 239.82482455857098, 205.86466301092878, -10.827010371722281, -75.97606759984046, -0.06400000303983688, 0.01600000075995922, 1.008000047877431, 0.0, 0.0, 0.0, 0.0, 0.0, 1.707340118649833E9, 0.0, 2024-02-07 13:08:38.649
4.0, 202.08923400565982, 171.78295471472666, -13.871288935653865, -75.02239311113954, -0.06400000303983688, 0.01600000075995922, 1.008000047877431, 0.0, 0.0, 0.0, 0.0, 0.0, 1.707340118661125E9, 0.0, 2024-02-07 13:08:38.661
4.0, 106.0897420430556, 78.10220072465017, 30.065055743791163, 7.068410916253924, -0.06400000303983688, 0.01600000075995922, 1.008000047877431, 0.0, 0.0, 0.0, 0.0, 0.0, 1.707340118661125E9, 0.0, 2024-02-07 13:08:38.661
